!@!!GADDS PLOTSO FILE: Chi integration type
!@!!Title/SampleName: ML_MAPbX3_chem3
!@!!User: NREL
!@!!Site: NREL SERF C211; SN 2510
!@!!Frame: C:\frames\rbelisle\MLProject\ML_MAPbX3_chem3_000_002.gfrm
!@!!Wavelengths    1.54184   1.54056   1.54439
!@!!Frame angles: 2Theta: 28.000 Omega: 5.000 Phi: 0.000 Chi: 90.000
!@!!Integration range: 2Theta: 10.000 to 40.000  Gamma: -135.000 to -45.000
!@!!Integration method: bin normalized
!@!N
!@!SS
!@!M
!@!L 0.0 0.0 0.0 0.0
!@!XDegrees
!@!YCounts
10.00 154.417175
10.02 154.631744
10.04 151.606674
10.06 153.912323
10.08 150.755493
10.10 151.889252
10.12 159.698303
10.14 158.351532
10.16 166.799606
10.18 158.471741
10.20 154.162766
10.22 160.871338
10.24 161.542267
10.26 163.760971
10.28 163.712097
10.30 159.816528
10.32 159.769135
10.34 156.071411
10.36 163.773361
10.38 161.026794
10.40 160.960815
10.42 160.024506
10.44 159.587112
10.46 165.786484
10.48 167.171005
10.50 172.549301
10.52 176.651657
10.54 175.903748
10.56 173.473373
10.58 166.966751
10.60 169.168671
10.62 172.571182
10.64 181.691727
10.66 172.274384
10.68 171.354538
10.70 173.611038
10.72 173.885513
10.74 175.564819
10.76 181.727859
10.78 176.353592
10.80 168.166656
10.82 177.423141
10.84 182.454163
10.86 183.797485
10.88 183.11795
10.90 180.427719
10.92 178.792892
10.94 187.848328
10.96 183.988113
10.98 179.508484
11.00 176.429657
11.02 178.533066
11.04 184.338654
11.06 180.432495
11.08 182.293762
11.10 193.178711
11.12 190.218033
11.14 188.441956
11.16 188.756134
11.18 189.810837
11.20 186.684341
11.22 186.032639
11.24 186.441208
11.26 188.510452
11.28 191.393097
11.30 186.690567
11.32 192.563873
11.34 191.256165
11.36 185.643692
11.38 199.263367
11.40 198.139282
11.42 193.285629
11.44 192.165054
11.46 200.229797
11.48 200.86908
11.50 201.754791
11.52 201.197037
11.54 195.62738
11.56 195.608643
11.58 198.148331
11.60 200.364227
11.62 211.172699
11.64 213.435089
11.66 208.405319
11.68 203.378296
11.70 202.706909
11.72 204.217514
11.74 199.283646
11.76 208.106689
11.78 210.020844
11.80 213.209595
11.82 208.512222
11.84 203.893555
11.86 203.125015
11.88 207.085159
11.90 209.237823
11.92 214.350388
11.94 218.626877
11.96 217.367935
11.98 221.884201
12.00 217.930969
12.02 209.904434
12.04 209.912872
12.06 214.533005
12.08 208.149902
12.10 206.357437
12.12 216.404755
12.14 217.350082
12.16 214.24144
12.18 218.033035
12.20 210.441269
12.22 212.809128
12.24 220.663315
12.26 222.320343
12.28 218.235718
12.30 229.087585
12.32 230.80658
12.34 229.789047
12.36 220.6642
12.38 220.544556
12.40 223.909958
12.42 229.131683
12.44 235.096252
12.46 225.731934
12.48 224.442978
12.50 224.87796
12.52 230.761429
12.54 226.302689
12.56 230.056961
12.58 237.098663
12.60 228.797256
12.62 234.645905
12.64 234.893524
12.66 224.87085
12.68 232.550171
12.70 237.885681
12.72 238.122787
12.74 241.188766
12.76 238.786453
12.78 234.293884
12.80 239.300812
12.82 244.862045
12.84 244.09671
12.86 244.516708
12.88 243.548309
12.90 238.912231
12.92 242.376968
12.94 242.593552
12.96 244.606689
12.98 242.126755
13.00 246.440582
13.02 243.508621
13.04 248.77095
13.06 250.268661
13.08 247.276001
13.10 243.194672
13.12 246.921936
13.14 253.72229
13.16 249.676743
13.18 249.376389
13.20 254.590363
13.22 256.496796
13.24 253.011551
13.26 252.599548
13.28 252.208847
13.30 242.902664
13.32 246.391571
13.34 247.828659
13.36 249.043182
13.38 246.911301
13.40 251.066452
13.42 254.850464
13.44 249.041916
13.46 256.491699
13.48 262.43689
13.50 262.787323
13.52 253.805008
13.54 254.104233
13.56 252.727814
13.58 263.434174
13.60 268.521484
13.62 258.375122
13.64 252.173462
13.66 256.799408
13.68 262.942749
13.70 259.131622
13.72 263.08432
13.74 259.977417
13.76 261.435883
13.78 266.699371
13.80 270.587982
13.82 264.156433
13.84 274.263123
13.86 271.793579
13.88 265.912659
13.90 265.730225
13.92 262.586548
13.94 276.909912
13.96 279.0271
13.98 272.490845
14.00 272.392151
14.02 276.154572
14.04 269.206482
14.06 270.99649
14.08 275.821228
14.10 272.246277
14.12 276.617706
14.14 277.405945
14.16 276.942322
14.18 270.425598
14.20 270.902405
14.22 270.029236
14.24 267.628662
14.26 269.588593
14.28 274.764008
14.30 278.271088
14.32 273.549622
14.34 284.050232
14.36 292.198425
14.38 287.39859
14.40 286.127625
14.42 282.759827
14.44 293.877502
14.46 295.939026
14.48 295.528107
14.50 297.092224
14.52 300.000122
14.54 290.211853
14.56 297.259033
14.58 300.354553
14.60 302.869141
14.62 297.485718
14.64 297.285095
14.66 297.536713
14.68 305.809113
14.70 308.179596
14.72 307.261475
14.74 307.208252
14.76 325.35022
14.78 329.655396
14.80 326.479614
14.82 338.389435
14.84 348.221527
14.86 349.946045
14.88 357.837097
14.90 369.433258
14.92 377.804779
14.94 389.737518
14.96 392.171082
14.98 405.792297
15.00 419.805939
15.02 433.357574
15.04 445.677704
15.06 469.663055
15.08 496.675201
15.10 506.294495
15.12 528.700806
15.14 552.977539
15.16 571.744934
15.18 602.200317
15.20 627.531311
15.22 664.986023
15.24 713.669189
15.26 754.364258
15.28 792.58551
15.30 818.193848
15.32 873.562256
15.34 914.083862
15.36 950.103088
15.38 983.361084
15.40 1021.717896
15.42 1040.079834
15.44 1049.261597
15.46 1056.712646
15.48 1041.970093
15.50 1008.401428
15.52 962.040588
15.54 904.460938
15.56 870.631348
15.58 823.827576
15.60 769.340515
15.62 713.147217
15.64 666.1651
15.66 639.461426
15.68 592.515686
15.70 552.136475
15.72 522.663208
15.74 497.058807
15.76 479.988831
15.78 461.744171
15.80 440.903625
15.82 430.385925
15.84 417.97226
15.86 405.422729
15.88 399.986633
15.90 386.273773
15.92 371.57782
15.94 368.541504
15.96 367.34436
15.98 368.455475
16.00 364.147827
16.02 367.37619
16.04 350.672943
16.06 337.443481
16.08 337.779999
16.10 342.680511
16.12 346.145142
16.14 341.300232
16.16 339.848633
16.18 341.558319
16.20 340.662262
16.22 329.870636
16.24 326.338074
16.26 324.015839
16.28 325.616089
16.30 318.749054
16.32 323.916931
16.34 329.437866
16.36 327.865631
16.38 330.048492
16.40 325.828918
16.42 313.129089
16.44 313.845032
16.46 313.285767
16.48 310.001709
16.50 315.59375
16.52 323.161407
16.54 323.756226
16.56 322.174744
16.58 327.673615
16.60 326.511566
16.62 318.770447
16.64 323.451294
16.66 324.192871
16.68 314.009216
16.70 316.201752
16.72 319.782745
16.74 319.451691
16.76 320.630157
16.78 315.06662
16.80 316.154541
16.82 321.452515
16.84 319.880035
16.86 329.01767
16.88 322.288696
16.90 324.318787
16.92 325.168884
16.94 327.360931
16.96 334.411011
16.98 321.891907
17.00 321.047028
17.02 330.516174
17.04 326.043457
17.06 321.5271
17.08 327.974579
17.10 325.330383
17.12 326.676147
17.14 321.152283
17.16 320.147736
17.18 325.303131
17.20 333.275909
17.22 326.530762
17.24 320.857056
17.26 325.657593
17.28 327.366821
17.30 336.370117
17.32 336.339081
17.34 330.445923
17.36 330.142761
17.38 335.923309
17.40 337.393219
17.42 336.718597
17.44 340.459534
17.46 343.112946
17.48 333.331512
17.50 337.669891
17.52 343.799591
17.54 342.094269
17.56 339.0448
17.58 331.475281
17.60 331.125977
17.62 338.056946
17.64 337.868225
17.66 346.891998
17.68 345.357147
17.70 343.143921
17.72 334.283813
17.74 334.113953
17.76 326.386322
17.78 333.87085
17.80 354.488129
17.82 356.660126
17.84 349.003723
17.86 352.213318
17.88 357.603058
17.90 347.149719
17.92 349.664612
17.94 347.160095
17.96 356.314972
17.98 353.545135
18.00 352.094604
18.02 353.968292
18.04 354.41861
18.06 357.370972
18.08 356.900421
18.10 348.798828
18.12 352.480621
18.14 361.967651
18.16 363.538086
18.18 365.087708
18.20 361.611542
18.22 361.030426
18.24 364.875793
18.26 368.873322
18.28 370.180603
18.30 363.787354
18.32 362.744751
18.34 364.375916
18.36 365.222992
18.38 374.698425
18.40 374.555176
18.42 371.334045
18.44 372.864502
18.46 368.886108
18.48 360.835144
18.50 374.025055
18.52 378.826752
18.54 372.858612
18.56 370.272522
18.58 379.670776
18.60 365.2966
18.62 371.357483
18.64 381.797791
18.66 375.713379
18.68 373.342194
18.70 384.032715
18.72 385.043396
18.74 383.291748
18.76 378.301331
18.78 378.041351
18.80 388.090057
18.82 391.190796
18.84 379.840668
18.86 383.880737
18.88 386.681274
18.90 388.62796
18.92 390.619934
18.94 385.663849
18.96 392.249237
18.98 387.307678
19.00 389.608673
19.02 396.894073
19.04 404.859406
19.06 396.774963
19.08 389.13855
19.10 387.093231
19.12 392.876038
19.14 397.22522
19.16 399.892426
19.18 397.532166
19.20 402.884277
19.22 397.347412
19.24 396.230255
19.26 403.107788
19.28 406.658569
19.30 402.598511
19.32 398.537231
19.34 398.304626
19.36 411.308624
19.38 408.164734
19.40 413.810272
19.42 413.668213
19.44 408.211914
19.46 408.367371
19.48 413.982758
19.50 410.163177
19.52 418.178802
19.54 424.962524
19.56 417.491882
19.58 416.899841
19.60 420.980774
19.62 417.515381
19.64 417.605988
19.66 418.862762
19.68 413.13974
19.70 417.979492
19.72 422.504669
19.74 423.95575
19.76 424.138031
19.78 419.664124
19.80 421.564331
19.82 428.025482
19.84 428.544952
19.86 429.805664
19.88 432.66568
19.90 435.515533
19.92 433.907104
19.94 440.298065
19.96 435.793579
19.98 438.329193
20.00 433.910156
20.02 431.303253
20.04 428.244537
20.06 428.734985
20.08 433.285004
20.10 439.878723
20.12 442.065063
20.14 446.64801
20.16 436.622986
20.18 432.525024
20.20 442.88208
20.22 445.526123
20.24 449.889343
20.26 455.280212
20.28 457.657562
20.30 460.108032
20.32 452.045593
20.34 446.401184
20.36 455.342834
20.38 448.237213
20.40 443.327637
20.42 445.92511
20.44 456.679352
20.46 452.914673
20.48 452.286041
20.50 453.070831
20.52 463.206787
20.54 465.817413
20.56 458.522797
20.58 456.208832
20.60 451.612366
20.62 455.230652
20.64 462.319733
20.66 455.806396
20.68 452.306305
20.70 463.737854
20.72 466.307251
20.74 472.073334
20.76 481.411591
20.78 478.002258
20.80 474.707092
20.82 471.046509
20.84 474.109283
20.86 483.893768
20.88 477.589294
20.90 472.012543
20.92 476.451477
20.94 482.48291
20.96 477.458557
20.98 476.960083
21.00 482.110565
21.02 485.430573
21.04 488.921265
21.06 492.03537
21.08 488.867432
21.10 484.272675
21.12 492.41272
21.14 501.036377
21.16 494.618744
21.18 502.537659
21.20 502.47702
21.22 498.562866
21.24 498.80191
21.26 503.359772
21.28 497.565674
21.30 506.08078
21.32 504.414978
21.34 503.82309
21.36 507.981354
21.38 513.879333
21.40 517.504639
21.42 514.369995
21.44 518.510437
21.46 513.457275
21.48 511.838928
21.50 518.948303
21.52 529.937256
21.54 538.460815
21.56 533.990601
21.58 533.283081
21.60 529.773315
21.62 538.172607
21.64 538.514771
21.66 540.271484
21.68 543.293945
21.70 547.854065
21.72 552.842834
21.74 540.459778
21.76 542.773743
21.78 549.589478
21.80 560.130188
21.82 560.576904
21.84 556.71106
21.86 556.916016
21.88 553.490051
21.90 559.350159
21.92 556.231506
21.94 555.209229
21.96 555.807068
21.98 553.194092
22.00 558.002991
22.02 556.020874
22.04 555.148621
22.06 563.932373
22.08 549.165283
22.10 532.404846
22.12 536.771484
22.14 544.083679
22.16 549.86554
22.18 549.855835
22.20 550.56781
22.22 555.532227
22.24 551.380737
22.26 544.433899
22.28 547.759705
22.30 553.245728
22.32 547.802368
22.34 549.614319
22.36 539.557617
22.38 542.774292
22.40 537.464172
22.42 530.892944
22.44 529.540894
22.46 539.454529
22.48 547.763428
22.50 549.39917
22.52 552.845154
22.54 543.433411
22.56 536.307495
22.58 539.526733
22.60 548.64386
22.62 543.734985
22.64 539.334351
22.66 543.250732
22.68 539.151428
22.70 541.171021
22.72 542.838684
22.74 537.307251
22.76 532.698242
22.78 542.22699
22.80 551.044495
22.82 546.7771
22.84 556.352295
22.86 556.932068
22.88 553.093323
22.90 552.123169
22.92 557.066772
22.94 555.356262
22.96 548.989807
22.98 554.686279
23.00 564.1427
23.02 560.744751
23.04 564.649109
23.06 560.757568
23.08 558.796631
23.10 563.616272
23.12 556.697449
23.14 550.62677
23.16 549.643005
23.18 556.085327
23.20 561.14801
23.22 563.150452
23.24 565.016785
23.26 564.586426
23.28 560.258667
23.30 556.306519
23.32 557.25647
23.34 558.192932
23.36 557.40271
23.38 557.670349
23.40 562.699341
23.42 567.027405
23.44 561.590027
23.46 554.343445
23.48 555.124695
23.50 563.501465
23.52 569.313232
23.54 568.81073
23.56 551.560303
23.58 554.488342
23.60 559.55127
23.62 556.836914
23.64 562.573914
23.66 573.113892
23.68 566.668945
23.70 562.019714
23.72 566.206055
23.74 572.805054
23.76 570.976868
23.78 565.760071
23.80 564.335876
23.82 575.40033
23.84 565.208008
23.86 563.947144
23.88 568.824646
23.90 577.417847
23.92 572.015259
23.94 564.056763
23.96 560.289063
23.98 574.239502
24.00 579.496277
24.02 573.434631
24.04 579.275452
24.06 576.842468
24.08 571.239014
24.10 565.633057
24.12 573.896606
24.14 577.193665
24.16 571.539001
24.18 573.129761
24.20 567.031677
24.22 568.955688
24.24 574.029053
24.26 580.376587
24.28 587.951782
24.30 590.303345
24.32 589.842346
24.34 575.188293
24.36 574.474182
24.38 571.160156
24.40 582.363586
24.42 585.195251
24.44 573.568665
24.46 571.913086
24.48 574.448792
24.50 580.619812
24.52 578.876648
24.54 574.473022
24.56 570.242798
24.58 570.471619
24.60 571.840271
24.62 576.228088
24.64 571.968018
24.66 579.10321
24.68 578.646729
24.70 578.133789
24.72 578.952271
24.74 575.692383
24.76 579.10437
24.78 582.647644
24.80 572.998474
24.82 572.317383
24.84 575.928223
24.86 575.08075
24.88 572.615417
24.90 578.55426
24.92 581.589966
24.94 580.216492
24.96 587.576172
24.98 577.132935
25.00 579.805725
25.02 578.628174
25.04 586.355347
25.06 580.490601
25.08 573.069519
25.10 587.720398
25.12 594.756836
25.14 584.647339
25.16 578.74585
25.18 582.464233
25.20 591.536438
25.22 583.454102
25.24 580.035522
25.26 581.43811
25.28 586.526428
25.30 589.678589
25.32 585.000061
25.34 582.871521
25.36 584.78064
25.38 575.676025
25.40 578.522461
25.42 584.195435
25.44 585.212341
25.46 584.066833
25.48 582.934265
25.50 575.300537
25.52 571.902588
25.54 575.390259
25.56 574.06543
25.58 573.710388
25.60 584.435425
25.62 582.018372
25.64 579.424438
25.66 580.270874
25.68 581.671692
25.70 574.373718
25.72 579.426636
25.74 581.143127
25.76 576.837708
25.78 578.9776
25.80 580.344238
25.82 581.899658
25.84 583.84259
25.86 577.986816
25.88 580.698059
25.90 575.960083
25.92 571.918823
25.94 572.990845
25.96 572.53064
25.98 579.471558
26.00 572.539856
26.02 571.738953
26.04 580.112366
26.06 580.848755
26.08 576.705566
26.10 576.556213
26.12 586.304443
26.14 588.311707
26.16 589.771118
26.18 586.801941
26.20 589.937134
26.22 595.500732
26.24 586.071228
26.26 582.181335
26.28 582.294067
26.30 573.187622
26.32 569.137573
26.34 568.175781
26.36 574.044312
26.38 573.050232
26.40 575.923157
26.42 579.800781
26.44 576.459412
26.46 575.960022
26.48 586.146118
26.50 585.021118
26.52 578.14093
26.54 584.636719
26.56 581.022583
26.58 572.516663
26.60 575.285217
26.62 576.855042
26.64 575.640869
26.66 581.094604
26.68 582.570801
26.70 584.97583
26.72 579.317444
26.74 579.133423
26.76 583.651184
26.78 574.195435
26.80 569.480896
26.82 569.116211
26.84 572.419312
26.86 583.287231
26.88 572.053284
26.90 576.074768
26.92 579.869873
26.94 573.938293
26.96 572.445435
26.98 577.806458
27.00 575.981445
27.02 575.540527
27.04 575.989136
27.06 575.639282
27.08 583.322693
27.10 578.668396
27.12 571.103516
27.14 576.603394
27.16 577.276489
27.18 571.858765
27.20 563.338806
27.22 564.590942
27.24 570.015259
27.26 570.034363
27.28 573.357361
27.30 574.584412
27.32 565.235352
27.34 559.156616
27.36 559.806702
27.38 575.741943
27.40 575.742004
27.42 573.319519
27.44 581.331116
27.46 574.282104
27.48 570.898315
27.50 574.029907
27.52 578.503967
27.54 570.00531
27.56 564.332275
27.58 571.754028
27.60 573.435059
27.62 580.965637
27.64 580.324036
27.66 577.120117
27.68 568.375
27.70 561.058594
27.72 568.05011
27.74 565.705444
27.76 566.896362
27.78 572.209717
27.80 569.196289
27.82 568.840088
27.84 568.182556
27.86 567.142273
27.88 566.059814
27.90 567.549377
27.92 577.365784
27.94 567.349976
27.96 556.596191
27.98 565.994263
28.00 568.193054
28.02 565.046387
28.04 562.527283
28.06 564.014832
28.08 572.217651
28.10 558.250061
28.12 558.767883
28.14 560.575317
28.16 560.304138
28.18 566.538757
28.20 562.932678
28.22 566.091614
28.24 572.507202
28.26 565.624573
28.28 559.81842
28.30 561.86261
28.32 562.057922
28.34 568.17981
28.36 570.432495
28.38 572.472595
28.40 565.637207
28.42 559.093262
28.44 552.815369
28.46 562.988708
28.48 574.637451
28.50 568.237
28.52 559.835388
28.54 561.956177
28.56 562.48584
28.58 562.074097
28.60 556.677124
28.62 556.249451
28.64 560.927795
28.66 560.825378
28.68 552.597046
28.70 555.470764
28.72 562.241577
28.74 564.408081
28.76 561.178284
28.78 562.805847
28.80 565.079651
28.82 558.322693
28.84 562.061218
28.86 562.304016
28.88 554.95697
28.90 558.904785
28.92 565.014954
28.94 566.557861
28.96 550.687622
28.98 557.39032
29.00 566.128662
29.02 564.202515
29.04 561.916992
29.06 560.637451
29.08 553.590759
29.10 564.133179
29.12 563.983521
29.14 558.013428
29.16 559.331726
29.18 558.945068
29.20 555.430359
29.22 553.098206
29.24 554.414063
29.26 562.403259
29.28 555.647644
29.30 555.461121
29.32 553.945679
29.34 553.181335
29.36 555.690369
29.38 556.458496
29.40 553.746338
29.42 555.091919
29.44 554.019775
29.46 554.531494
29.48 547.363586
29.50 553.501526
29.52 545.057068
29.54 540.323608
29.56 544.113159
29.58 543.665466
29.60 550.108398
29.62 550.207336
29.64 543.538879
29.66 545.254333
29.68 553.303101
29.70 555.77533
29.72 540.598999
29.74 539.724121
29.76 538.949646
29.78 539.976135
29.80 542.577332
29.82 541.620483
29.84 550.95343
29.86 543.707886
29.88 535.73291
29.90 544.690552
29.92 550.547607
29.94 549.531921
29.96 551.763672
29.98 544.975464
30.00 555.070068
30.02 548.020569
30.04 541.372681
30.06 541.090271
30.08 539.355042
30.10 541.128418
30.12 546.961121
30.14 548.345215
30.16 541.574341
30.18 542.285706
30.20 543.969421
30.22 544.465454
30.24 544.488953
30.26 549.288513
30.28 543.356201
30.30 538.562256
30.32 540.664368
30.34 541.491699
30.36 537.147339
30.38 545.714478
30.40 543.389893
30.42 549.635925
30.44 554.21991
30.46 547.293701
30.48 546.768066
30.50 552.09491
30.52 554.172302
30.54 545.257996
30.56 546.75531
30.58 546.319824
30.60 546.909607
30.62 553.624023
30.64 550.008362
30.66 546.286682
30.68 554.386902
30.70 549.616211
30.72 543.988708
30.74 547.154053
30.76 555.226013
30.78 556.086426
30.80 548.098022
30.82 558.099976
30.84 561.075989
30.86 567.033508
30.88 570.279175
30.90 564.169189
30.92 581.954407
30.94 591.121521
30.96 602.731018
30.98 606.135193
31.00 607.222046
31.02 625.386292
31.04 646.848511
31.06 655.80957
31.08 663.18396
31.10 676.940002
31.12 687.326172
31.14 694.341675
31.16 700.225281
31.18 699.072083
31.20 707.345337
31.22 701.603333
31.24 695.06897
31.26 683.481934
31.28 676.19873
31.30 671.036865
31.32 661.679565
31.34 647.002502
31.36 624.825867
31.38 608.360535
31.40 600.054504
31.42 593.168091
31.44 578.543091
31.46 560.489624
31.48 543.811462
31.50 540.777161
31.52 535.883362
31.54 529.946411
31.56 528.572449
31.58 527.764343
31.60 522.937866
31.62 521.430603
31.64 517.568909
31.66 511.764282
31.68 509.092773
31.70 508.733643
31.72 508.23407
31.74 509.505249
31.76 506.976624
31.78 503.577698
31.80 510.941772
31.82 511.293549
31.84 503.522217
31.86 502.539398
31.88 500.987396
31.90 489.044952
31.92 487.997955
31.94 494.983246
31.96 499.661163
31.98 505.847717
32.00 500.616119
32.02 493.120178
32.04 496.697296
32.06 495.55896
32.08 498.369934
32.10 496.717957
32.12 487.159912
32.14 488.643585
32.16 490.384186
32.18 488.994476
32.20 489.781525
32.22 488.868652
32.24 492.733765
32.26 491.20755
32.28 487.636719
32.30 494.009094
32.32 484.945862
32.34 484.289734
32.36 485.107971
32.38 482.268311
32.40 481.74234
32.42 487.243408
32.44 488.02536
32.46 481.676086
32.48 488.679474
32.50 487.819122
32.52 478.411835
32.54 486.661194
32.56 487.565948
32.58 481.789337
32.60 477.6297
32.62 475.040741
32.64 471.642212
32.66 479.004578
32.68 474.079224
32.70 464.593567
32.72 471.260651
32.74 481.34137
32.76 477.621399
32.78 474.48175
32.80 473.629791
32.82 469.275848
32.84 471.091034
32.86 475.69101
32.88 465.955963
32.90 466.007751
32.92 464.607269
32.94 467.274445
32.96 470.201324
32.98 469.900482
33.00 468.495789
33.02 475.190765
33.04 473.743378
33.06 471.479401
33.08 471.81369
33.10 469.630035
33.12 464.47818
33.14 472.852936
33.16 467.037262
33.18 467.514954
33.20 458.388306
33.22 464.471527
33.24 464.190857
33.26 453.431458
33.28 459.341797
33.30 460.995941
33.32 463.06189
33.34 462.210297
33.36 457.041931
33.38 459.459717
33.40 454.898865
33.42 454.204346
33.44 454.024719
33.46 459.685242
33.48 461.736145
33.50 458.891357
33.52 464.259125
33.54 463.067688
33.56 451.222961
33.58 452.895081
33.60 453.613068
33.62 454.680481
33.64 457.838898
33.66 451.651978
33.68 452.191101
33.70 451.863007
33.72 453.237457
33.74 456.681854
33.76 456.282166
33.78 450.308228
33.80 446.345825
33.82 449.993408
33.84 449.683563
33.86 448.713928
33.88 451.748596
33.90 460.457458
33.92 448.619537
33.94 439.199219
33.96 437.177887
33.98 446.144684
34.00 442.023499
34.02 447.867218
34.04 448.130676
34.06 443.115387
34.08 443.576538
34.10 445.124451
34.12 445.579559
34.14 448.163391
34.16 445.663239
34.18 443.173889
34.20 438.966217
34.22 450.440186
34.24 443.115875
34.26 426.917664
34.28 436.831573
34.30 442.118958
34.32 444.49176
34.34 440.723938
34.36 442.021088
34.38 447.022797
34.40 449.559235
34.42 445.882721
34.44 451.872986
34.46 447.239319
34.48 449.838684
34.50 446.792175
34.52 442.263977
34.54 449.025238
34.56 446.26416
34.58 451.265198
34.60 447.441437
34.62 451.008728
34.64 465.12616
34.66 467.33432
34.68 461.118347
34.70 461.834747
34.72 463.74939
34.74 468.870361
34.76 483.521149
34.78 479.517975
34.80 468.046906
34.82 467.268738
34.84 475.00946
34.86 470.867096
34.88 469.886902
34.90 475.890961
34.92 486.229736
34.94 486.713379
34.96 482.869171
34.98 482.287537
35.00 481.74292
35.02 482.934998
35.04 475.504456
35.06 474.371918
35.08 481.519287
35.10 480.080963
35.12 479.84375
35.14 473.455048
35.16 473.22522
35.18 469.286621
35.20 467.230499
35.22 467.253784
35.24 462.620789
35.26 458.842041
35.28 454.517975
35.30 446.040344
35.32 444.067169
35.34 445.703674
35.36 442.884033
35.38 440.203949
35.40 434.497009
35.42 431.154602
35.44 433.055328
35.46 433.183807
35.48 418.834625
35.50 415.854462
35.52 415.611725
35.54 415.374268
35.56 415.130066
35.58 412.646698
35.60 416.086121
35.62 410.405334
35.64 404.13446
35.66 406.452942
35.68 398.861115
35.70 405.650696
35.72 400.36261
35.74 401.191803
35.76 402.325684
35.78 402.14151
35.80 397.858917
35.82 394.424408
35.84 391.55249
35.86 389.383942
35.88 388.368958
35.90 391.757294
35.92 385.876495
35.94 391.716827
35.96 389.182709
35.98 381.711395
36.00 381.167023
36.02 389.58786
36.04 380.639252
36.06 375.398254
36.08 370.973724
36.10 376.609467
36.12 384.692963
36.14 384.647766
36.16 381.081726
36.18 374.437195
36.20 373.077942
36.22 368.022736
36.24 364.961273
36.26 368.792877
36.28 372.027832
36.30 368.145874
36.32 370.903442
36.34 376.853424
36.36 373.486511
36.38 377.77356
36.40 369.435059
36.42 369.536316
36.44 365.497375
36.46 362.173218
36.48 367.711243
36.50 363.497345
36.52 360.659027
36.54 361.723633
36.56 351.256744
36.58 357.019592
36.60 363.47522
36.62 364.343536
36.64 364.47644
36.66 358.838013
36.68 359.513458
36.70 358.789825
36.72 363.213684
36.74 363.809845
36.76 363.103302
36.78 358.029663
36.80 362.764313
36.82 360.427673
36.84 356.635803
36.86 351.678497
36.88 348.352783
36.90 351.522858
36.92 357.21756
36.94 358.072113
36.96 356.205566
36.98 354.734467
37.00 350.1651
37.02 348.033356
37.04 346.808868
37.06 348.535339
37.08 346.70343
37.10 350.863159
37.12 349.303009
37.14 349.816772
37.16 351.215088
37.18 352.259918
37.20 349.202881
37.22 341.663788
37.24 340.974396
37.26 351.176453
37.28 351.949951
37.30 342.217407
37.32 340.944031
37.34 335.22525
37.36 345.116211
37.38 339.65741
37.40 337.999756
37.42 336.747101
37.44 338.640808
37.46 336.651947
37.48 335.800507
37.50 334.314148
37.52 338.249573
37.54 335.960693
37.56 340.992462
37.58 342.233093
37.60 344.781616
37.62 336.139526
37.64 331.010864
37.66 330.48111
37.68 329.160461
37.70 336.635468
37.72 338.693695
37.74 339.456665
37.76 339.065308
37.78 338.178558
37.80 337.620667
37.82 340.608154
37.84 340.316193
37.86 341.269012
37.88 335.758698
37.90 334.957947
37.92 333.588013
37.94 333.021515
37.96 335.785339
37.98 332.188385
38.00 336.115082
38.02 336.862427
38.04 328.647522
38.06 333.340027
38.08 337.823914
38.10 337.015259
38.12 336.709259
38.14 332.830017
38.16 330.371429
38.18 334.373688
38.20 335.963867
38.22 333.928345
38.24 337.089935
38.26 337.897858
38.28 330.011841
38.30 332.211426
38.32 336.460968
38.34 337.189392
38.36 336.764862
38.38 329.621338
38.40 325.818085
38.42 327.275177
38.44 331.562927
38.46 331.338776
38.48 329.770111
38.50 331.012695
38.52 326.992188
38.54 333.128052
38.56 333.208893
38.58 332.067871
38.60 329.90686
38.62 324.444702
38.64 320.472656
38.66 321.407532
38.68 316.715454
38.70 316.510529
38.72 315.433533
38.74 314.600067
38.76 311.526337
38.78 316.273285
38.80 322.155457
38.82 313.588776
38.84 304.301483
38.86 314.147217
38.88 313.398315
38.90 308.984985
38.92 308.412598
38.94 307.973022
38.96 312.482635
38.98 316.073547
39.00 313.458618
39.02 301.705658
39.04 302.920288
39.06 302.515106
39.08 300.132141
39.10 301.105957
39.12 308.081238
39.14 309.653137
39.16 309.966522
39.18 298.047241
39.20 294.855896
39.22 298.662201
39.24 305.215881
39.26 306.025177
39.28 300.616608
39.30 307.564026
39.32 303.525665
39.34 296.604858
39.36 306.236572
39.38 305.999084
39.40 309.513428
39.42 301.461334
39.44 299.003571
39.46 298.309113
39.48 295.561127
39.50 295.500336
39.52 294.569214
39.54 293.868011
39.56 290.223785
39.58 290.77066
39.60 290.561157
39.62 296.002472
39.64 297.994843
39.66 293.247192
39.68 291.193665
39.70 287.292816
39.72 289.368469
39.74 293.996155
39.76 294.229919
39.78 298.455414
39.80 288.683258
39.82 294.95929
39.84 303.560944
39.86 295.237366
39.88 293.071442
39.90 292.715515
39.92 293.295227
39.94 295.543701
39.96 294.143036
39.98 291.899658
40.00 289.260803
