!@!!GADDS PLOTSO FILE: Chi integration type
!@!!Title/SampleName: ML_MAPbX3
!@!!User: NREL
!@!!Site: NREL SERF C211; SN 2510
!@!!Frame: 081022_MLProject_000_014.gfrm
!@!!Wavelengths    1.54184   1.54056   1.54439
!@!!Frame angles: 2Theta: 28.000 Omega: 5.000 Phi: 0.000 Chi: 90.000
!@!!Integration range: 2Theta: 10.000 to 40.000  Gamma: -100.000 to -80.000
!@!!Integration method: bin normalized
!@!N
!@!SS
!@!M
!@!L 0.0 0.0 0.0 0.0
!@!XDegrees
!@!YCounts
10.00 263.462463
10.02 226.162277
10.04 239.719818
10.06 264.580078
10.08 251.989456
10.10 235.792175
10.12 224.458359
10.14 243.553909
10.16 247.612885
10.18 255.939224
10.20 253.240555
10.22 248.550842
10.24 234.784119
10.26 248.525406
10.28 238.797684
10.30 244.417862
10.32 249.792664
10.34 251.77771
10.36 226.938354
10.38 227.25975
10.40 204.164597
10.42 213.007782
10.44 237.367599
10.46 244.757095
10.48 256.76236
10.50 252.15477
10.52 248.705582
10.54 262.524109
10.56 239.877487
10.58 232.927628
10.60 233.766907
10.62 249.686905
10.64 259.767944
10.66 247.28183
10.68 245.702484
10.70 254.443817
10.72 256.02887
10.74 251.221558
10.76 235.328384
10.78 239.69931
10.80 265.004517
10.82 259.309296
10.84 256.783081
10.86 263.761536
10.88 263.937744
10.90 265.602539
10.92 248.217773
10.94 240.739746
10.96 262.901062
10.98 263.025116
11.00 261.257843
11.02 276.28479
11.04 276.106384
11.06 268.126495
11.08 245.546112
11.10 257.518799
11.12 274.709106
11.14 244.280014
11.16 249.769287
11.18 251.711502
11.20 244.972015
11.22 258.358124
11.24 268.752106
11.26 257.450714
11.28 262.390045
11.30 273.820862
11.32 279.529755
11.34 271.299225
11.36 273.173828
11.38 263.902283
11.40 262.76532
11.42 277.246368
11.44 266.852875
11.46 282.999786
11.48 286.232605
11.50 267.655548
11.52 267.319031
11.54 261.753326
11.56 264.4729
11.58 251.333374
11.60 252.755997
11.62 270.714447
11.64 292.882935
11.66 282.738159
11.68 279.38501
11.70 282.078705
11.72 285.822052
11.74 280.386353
11.76 279.600586
11.78 280.052582
11.80 282.546509
11.82 278.997498
11.84 266.869415
11.86 262.441559
11.88 279.919769
11.90 287.505402
11.92 295.435516
11.94 296.911407
11.96 290.566895
11.98 271.405518
12.00 279.172699
12.02 291.282959
12.04 274.589294
12.06 270.061493
12.08 299.029297
12.10 315.976135
12.12 324.713165
12.14 330.823883
12.16 310.141876
12.18 305.509857
12.20 278.478027
12.22 307.831329
12.24 316.121674
12.26 337.03183
12.28 341.319061
12.30 342.736786
12.32 343.604919
12.34 357.235504
12.36 367.642944
12.38 371.951996
12.40 385.91217
12.42 358.092346
12.44 387.209351
12.46 392.695831
12.48 389.957367
12.50 395.098328
12.52 404.586334
12.54 409.376251
12.56 412.862579
12.58 421.658539
12.60 439.704681
12.62 402.650696
12.64 402.897156
12.66 421.693604
12.68 403.347229
12.70 416.199799
12.72 421.077911
12.74 403.318604
12.76 364.193359
12.78 368.609467
12.80 357.679443
12.82 356.822754
12.84 359.578308
12.86 345.100647
12.88 349.549744
12.90 338.050415
12.92 313.329163
12.94 291.766754
12.96 286.295227
12.98 310.791107
13.00 312.536652
13.02 292.318726
13.04 287.567963
13.06 296.559296
13.08 299.832001
13.10 307.39978
13.12 320.826904
13.14 303.213165
13.16 298.430756
13.18 294.407806
13.20 310.555847
13.22 305.607361
13.24 310.23175
13.26 291.396759
13.28 283.176697
13.30 295.076294
13.32 311.885925
13.34 311.314972
13.36 304.511597
13.38 292.135864
13.40 321.521851
13.42 316.98941
13.44 305.484344
13.46 312.683777
13.48 306.706024
13.50 336.579529
13.52 358.946564
13.54 331.286774
13.56 314.737946
13.58 337.988342
13.60 329.385742
13.62 326.151642
13.64 333.587677
13.66 325.005707
13.68 344.359344
13.70 358.022308
13.72 359.830597
13.74 350.776215
13.76 356.355774
13.78 351.653931
13.80 366.853424
13.82 402.309387
13.84 384.584473
13.86 379.46167
13.88 400.486847
13.90 427.012726
13.92 427.847992
13.94 434.10199
13.96 438.410797
13.98 464.236328
14.00 486.343933
14.02 507.998627
14.04 517.838501
14.06 538.436523
14.08 543.361267
14.10 532.804932
14.12 559.75061
14.14 594.726563
14.16 616.927429
14.18 631.91626
14.20 634.556335
14.22 649.298035
14.24 632.459167
14.26 622.763367
14.28 622.422241
14.30 639.468384
14.32 625.03009
14.34 596.625793
14.36 597.148987
14.38 594.222351
14.40 535.808533
14.42 531.970581
14.44 515.716125
14.46 500.007751
14.48 471.724426
14.50 468.275299
14.52 466.508301
14.54 451.553772
14.56 451.187592
14.58 451.636536
14.60 444.633545
14.62 405.455353
14.64 422.74707
14.66 416.888245
14.68 428.183167
14.70 438.356445
14.72 420.5672
14.74 428.740082
14.76 417.732147
14.78 443.118896
14.80 461.853027
14.82 472.152252
14.84 476.532227
14.86 489.99881
14.88 522.580261
14.90 524.615845
14.92 528.223328
14.94 559.256104
14.96 559.27417
14.98 571.179382
15.00 625.742493
15.02 628.365051
15.04 634.124329
15.06 645.477356
15.08 695.123291
15.10 729.125549
15.12 772.298767
15.14 800.562866
15.16 808.323547
15.18 827.692688
15.20 816.155884
15.22 857.632263
15.24 878.656738
15.26 877.90918
15.28 861.775269
15.30 855.282959
15.32 864.366028
15.34 862.074707
15.36 820.62561
15.38 779.044556
15.40 764.205444
15.42 735.77771
15.44 698.471191
15.46 663.600525
15.48 621.100586
15.50 577.300903
15.52 565.731506
15.54 528.093506
15.56 512.43811
15.58 471.136414
15.60 442.333954
15.62 437.764587
15.64 432.363586
15.66 414.125275
15.68 408.609497
15.70 397.897217
15.72 412.052887
15.74 415.070831
15.76 401.998657
15.78 391.45932
15.80 398.16748
15.82 383.462219
15.84 354.888031
15.86 359.843201
15.88 367.421173
15.90 370.833954
15.92 377.720612
15.94 368.411224
15.96 359.8909
15.98 361.67807
16.00 353.913605
16.02 358.000336
16.04 360.508728
16.06 363.725555
16.08 368.684021
16.10 374.047668
16.12 359.907135
16.14 359.799347
16.16 358.870117
16.18 358.887909
16.20 357.673981
16.22 362.407379
16.24 373.068878
16.26 363.603302
16.28 363.50412
16.30 361.696014
16.32 366.990234
16.34 360.661407
16.36 345.361053
16.38 365.059753
16.40 381.336151
16.42 361.497101
16.44 364.991913
16.46 361.443085
16.48 352.963715
16.50 373.193878
16.52 360.106567
16.54 332.249573
16.56 331.327393
16.58 333.438965
16.60 343.111877
16.62 357.952637
16.64 376.045685
16.66 369.654266
16.68 344.620117
16.70 354.956329
16.72 349.852142
16.74 354.780548
16.76 353.093964
16.78 385.912109
16.80 377.501892
16.82 386.292877
16.84 370.223145
16.86 386.664185
16.88 382.050354
16.90 372.032959
16.92 367.471497
16.94 364.488007
16.96 370.800262
16.98 382.370941
17.00 388.399933
17.02 387.006989
17.04 392.13559
17.06 381.908783
17.08 383.754669
17.10 375.563354
17.12 371.964355
17.14 371.070313
17.16 374.38623
17.18 386.229004
17.20 383.781586
17.22 385.10614
17.24 374.166931
17.26 394.426453
17.28 383.277374
17.30 376.907562
17.32 386.490601
17.34 374.218597
17.36 379.776337
17.38 377.848511
17.40 377.298492
17.42 361.72757
17.44 374.704193
17.46 395.995819
17.48 403.664307
17.50 392.239258
17.52 399.484436
17.54 392.177277
17.56 401.400238
17.58 398.436859
17.60 399.481049
17.62 397.87262
17.64 399.838013
17.66 401.623871
17.68 399.299591
17.70 388.163208
17.72 400.569733
17.74 389.497131
17.76 383.840424
17.78 404.351563
17.80 416.910522
17.82 404.027435
17.84 391.27478
17.86 402.248657
17.88 394.72525
17.90 389.617096
17.92 402.027283
17.94 399.551575
17.96 380.983124
17.98 392.047028
18.00 402.724518
18.02 409.351593
18.04 405.768311
18.06 402.668427
18.08 413.03952
18.10 404.902466
18.12 408.387939
18.14 421.377136
18.16 401.787842
18.18 417.689362
18.20 413.610382
18.22 408.319855
18.24 402.749176
18.26 404.901611
18.28 400.310547
18.30 406.39502
18.32 416.988007
18.34 424.023071
18.36 420.421997
18.38 429.108215
18.40 416.164429
18.42 433.616119
18.44 429.173126
18.46 417.11322
18.48 418.415833
18.50 434.520905
18.52 452.484436
18.54 433.417297
18.56 430.442841
18.58 428.020111
18.60 436.45578
18.62 419.495819
18.64 420.761383
18.66 435.670898
18.68 441.932861
18.70 437.504181
18.72 421.127502
18.74 434.239044
18.76 438.940765
18.78 444.98233
18.80 444.301727
18.82 455.946564
18.84 450.200806
18.86 444.45636
18.88 449.940521
18.90 452.128632
18.92 451.43988
18.94 441.660461
18.96 440.346436
18.98 462.431091
19.00 466.554962
19.02 448.144135
19.04 439.367676
19.06 447.696442
19.08 440.594299
19.10 455.032501
19.12 465.353638
19.14 476.958527
19.16 479.521332
19.18 444.699158
19.20 451.126648
19.22 454.874878
19.24 440.727844
19.26 449.011383
19.28 472.155853
19.30 480.517853
19.32 473.521423
19.34 472.802002
19.36 483.214264
19.38 481.981415
19.40 489.814301
19.42 490.047302
19.44 480.861267
19.46 480.712555
19.48 490.633545
19.50 463.09201
19.52 467.526886
19.54 460.751465
19.56 476.307281
19.58 481.08905
19.60 481.570618
19.62 486.64679
19.64 474.393829
19.66 463.08075
19.68 496.754059
19.70 485.473145
19.72 480.156433
19.74 476.141357
19.76 489.53421
19.78 491.312103
19.80 505.499084
19.82 508.940643
19.84 484.387939
19.86 486.562225
19.88 486.270691
19.90 490.11731
19.92 512.685486
19.94 498.062103
19.96 510.01004
19.98 521.959961
20.00 493.339752
20.02 500.937103
20.04 477.180939
20.06 498.638763
20.08 516.222351
20.10 505.451416
20.12 502.369995
20.14 514.864624
20.16 530.932617
20.18 544.873962
20.20 528.642517
20.22 527.479126
20.24 535.416931
20.26 529.317749
20.28 526.894043
20.30 511.242981
20.32 514.203796
20.34 520.232605
20.36 524.983887
20.38 554.387634
20.40 546.403748
20.42 549.841736
20.44 532.737244
20.46 531.963013
20.48 532.427734
20.50 516.347839
20.52 520.093262
20.54 525.360596
20.56 538.547729
20.58 546.022217
20.60 547.101807
20.62 539.785706
20.64 526.351379
20.66 515.965759
20.68 519.515747
20.70 512.685059
20.72 527.244934
20.74 528.905029
20.76 530.95929
20.78 556.725403
20.80 546.120361
20.82 543.177185
20.84 552.414307
20.86 537.010864
20.88 533.43573
20.90 536.604126
20.92 554.52655
20.94 553.681213
20.96 544.223511
20.98 563.195862
21.00 560.305176
21.02 560.705566
21.04 543.8573
21.06 549.635498
21.08 539.588318
21.10 557.743896
21.12 561.323364
21.14 553.151917
21.16 544.848389
21.18 550.156616
21.20 558.441833
21.22 545.936584
21.24 540.094177
21.26 563.400269
21.28 584.206848
21.30 594.721497
21.32 585.791687
21.34 599.48468
21.36 586.035706
21.38 584.975281
21.40 596.330933
21.42 596.815308
21.44 595.169861
21.46 594.762756
21.48 587.414246
21.50 605.327637
21.52 588.409119
21.54 596.141907
21.56 609.680054
21.58 592.426086
21.60 598.520874
21.62 619.840515
21.64 630.984985
21.66 628.13855
21.68 622.45459
21.70 611.428955
21.72 627.139526
21.74 628.795471
21.76 623.677429
21.78 627.453369
21.80 636.212036
21.82 640.959167
21.84 635.019653
21.86 624.261047
21.88 621.717285
21.90 626.814209
21.92 625.752441
21.94 609.034363
21.96 593.775391
21.98 627.122986
22.00 610.904053
22.02 628.052795
22.04 624.552368
22.06 610.268372
22.08 614.6073
22.10 590.115051
22.12 601.089905
22.14 610.469482
22.16 604.563049
22.18 609.770325
22.20 601.303345
22.22 612.986572
22.24 609.961975
22.26 606.388794
22.28 628.60437
22.30 646.187195
22.32 624.033997
22.34 623.897278
22.36 617.331848
22.38 633.400574
22.40 606.906006
22.42 603.405151
22.44 620.706604
22.46 621.382263
22.48 633.532227
22.50 619.087708
22.52 620.612366
22.54 624.848572
22.56 635.926147
22.58 646.516418
22.60 621.893982
22.62 619.166931
22.64 623.713928
22.66 604.063843
22.68 613.417053
22.70 618.313538
22.72 625.545654
22.74 647.415161
22.76 650.911255
22.78 633.034668
22.80 637.500916
22.82 629.619446
22.84 653.275024
22.86 655.189209
22.88 654.952026
22.90 644.363342
22.92 636.35498
22.94 643.595703
22.96 645.860352
22.98 633.58728
23.00 644.500854
23.02 632.241821
23.04 619.005737
23.06 628.804626
23.08 637.094666
23.10 657.614868
23.12 666.122375
23.14 649.368835
23.16 634.986145
23.18 651.360168
23.20 662.561218
23.22 636.295776
23.24 645.534485
23.26 652.678894
23.28 657.192383
23.30 660.401978
23.32 646.497864
23.34 647.314026
23.36 657.994812
23.38 672.443787
23.40 654.209229
23.42 647.654419
23.44 679.312988
23.46 656.351135
23.48 662.233704
23.50 656.947937
23.52 651.03894
23.54 651.122925
23.56 663.311707
23.58 648.377869
23.60 655.367798
23.62 648.027405
23.64 679.123718
23.66 651.741211
23.68 695.15094
23.70 672.435913
23.72 628.430054
23.74 647.522644
23.76 678.677185
23.78 665.151428
23.80 678.55835
23.82 680.91925
23.84 639.748718
23.86 666.796631
23.88 683.567932
23.90 660.242676
23.92 628.484558
23.94 650.057495
23.96 666.458923
23.98 652.558533
24.00 655.983276
24.02 643.924316
24.04 632.781799
24.06 651.1026
24.08 650.488281
24.10 669.946167
24.12 680.481628
24.14 683.472107
24.16 677.517761
24.18 677.133362
24.20 647.769653
24.22 667.537231
24.24 680.497375
24.26 691.886841
24.28 677.138916
24.30 682.446106
24.32 696.55011
24.34 676.981567
24.36 658.705872
24.38 669.018127
24.40 671.192749
24.42 666.517151
24.44 666.132629
24.46 666.427368
24.48 659.772705
24.50 674.065308
24.52 664.187256
24.54 664.585571
24.56 640.510559
24.58 647.514648
24.60 662.154602
24.62 657.814087
24.64 652.348694
24.66 664.440002
24.68 665.638611
24.70 676.869385
24.72 676.85376
24.74 684.796265
24.76 676.211304
24.78 678.443359
24.80 676.618103
24.82 664.493286
24.84 677.58667
24.86 685.05896
24.88 697.676575
24.90 682.069397
24.92 673.33374
24.94 676.257813
24.96 674.487427
24.98 668.422119
25.00 688.624268
25.02 676.430847
25.04 667.809753
25.06 665.822205
25.08 667.909241
25.10 697.809448
25.12 680.274353
25.14 677.458252
25.16 692.412354
25.18 689.478088
25.20 668.923706
25.22 663.02063
25.24 670.803711
25.26 691.679504
25.28 692.366699
25.30 692.222595
25.32 671.114807
25.34 664.286682
25.36 671.906616
25.38 673.219299
25.40 689.1026
25.42 677.63501
25.44 684.007813
25.46 686.291687
25.48 680.281982
25.50 661.922607
25.52 675.244934
25.54 686.612366
25.56 685.526062
25.58 701.755066
25.60 678.434814
25.62 662.127747
25.64 659.97052
25.66 678.519226
25.68 689.632507
25.70 698.26825
25.72 679.790283
25.74 680.658936
25.76 681.671448
25.78 678.008545
25.80 655.681396
25.82 658.313721
25.84 676.541077
25.86 668.123474
25.88 665.675659
25.90 690.519836
25.92 678.008057
25.94 671.648987
25.96 656.807312
25.98 644.002075
26.00 652.810547
26.02 679.724915
26.04 690.401428
26.06 700.451904
26.08 679.842773
26.10 688.306763
26.12 682.709656
26.14 702.587952
26.16 681.704346
26.18 685.642273
26.20 676.831177
26.22 698.755127
26.24 675.488708
26.26 659.435364
26.28 677.010742
26.30 665.962524
26.32 662.499512
26.34 669.686951
26.36 675.166504
26.38 685.108521
26.40 681.058899
26.42 675.89801
26.44 671.846863
26.46 679.495911
26.48 672.516846
26.50 672.273376
26.52 658.574707
26.54 645.976807
26.56 679.930969
26.58 681.762939
26.60 682.921814
26.62 682.713135
26.64 643.412964
26.66 644.982361
26.68 644.720215
26.70 643.561462
26.72 637.820374
26.74 662.719482
26.76 661.960999
26.78 675.983826
26.80 679.087036
26.82 669.991089
26.84 668.163879
26.86 676.973755
26.88 668.932068
26.90 661.216003
26.92 657.467651
26.94 662.964722
26.96 678.195313
26.98 664.520264
27.00 656.644287
27.02 665.497925
27.04 658.32135
27.06 642.157104
27.08 632.031128
27.10 641.000549
27.12 660.239258
27.14 660.486511
27.16 661.221252
27.18 671.624817
27.20 664.807068
27.22 653.514343
27.24 648.665222
27.26 651.96637
27.28 676.221436
27.30 663.359314
27.32 656.902771
27.34 639.471741
27.36 663.316956
27.38 663.609314
27.40 647.744385
27.42 646.046509
27.44 645.059631
27.46 641.195984
27.48 650.093689
27.50 657.704468
27.52 647.701477
27.54 660.864441
27.56 668.140747
27.58 682.500732
27.60 672.970886
27.62 630.750427
27.64 633.549927
27.66 653.895996
27.68 672.444092
27.70 681.51947
27.72 679.770142
27.74 676.252686
27.76 642.243896
27.78 644.821655
27.80 644.057861
27.82 661.763123
27.84 645.737305
27.86 628.769104
27.88 650.127686
27.90 658.691956
27.92 652.898743
27.94 631.836609
27.96 636.195618
27.98 665.621521
28.00 661.876587
28.02 654.401611
28.04 657.510498
28.06 667.897949
28.08 657.642883
28.10 635.765686
28.12 645.567627
28.14 655.944824
28.16 665.538635
28.18 682.102356
28.20 679.171814
28.22 659.122742
28.24 665.525879
28.26 665.523804
28.28 665.08075
28.30 657.760986
28.32 652.848877
28.34 695.597595
28.36 697.537842
28.38 683.893066
28.40 686.801453
28.42 707.801208
28.44 710.113037
28.46 711.079224
28.48 717.770813
28.50 702.938416
28.52 704.835693
28.54 745.657471
28.56 767.441895
28.58 757.685364
28.60 760.444214
28.62 765.068115
28.64 796.066223
28.66 807.353027
28.68 800.841797
28.70 796.001709
28.72 798.862854
28.74 795.022827
28.76 780.420654
28.78 789.254333
28.80 795.822449
28.82 774.867981
28.84 772.064758
28.86 749.471252
28.88 741.068909
28.90 741.073914
28.92 753.521057
28.94 737.866028
28.96 712.457703
28.98 696.815979
29.00 696.785583
29.02 713.825684
29.04 700.184509
29.06 691.666565
29.08 699.720337
29.10 685.800842
29.12 673.347107
29.14 649.823792
29.16 669.62616
29.18 671.827332
29.20 652.850159
29.22 666.3573
29.24 655.185913
29.26 663.999146
29.28 652.908081
29.30 662.398865
29.32 667.843628
29.34 658.298645
29.36 648.626526
29.38 638.759094
29.40 638.668274
29.42 649.450562
29.44 659.382385
29.46 668.616516
29.48 660.357178
29.50 636.983459
29.52 629.525085
29.54 645.214844
29.56 652.300659
29.58 642.865479
29.60 630.020813
29.62 640.170288
29.64 645.987915
29.66 629.174561
29.68 652.317444
29.70 640.527161
29.72 618.224182
29.74 613.458801
29.76 616.769592
29.78 621.731018
29.80 631.207764
29.82 636.51355
29.84 627.868225
29.86 621.806946
29.88 623.710327
29.90 630.253418
29.92 629.663635
29.94 640.019897
29.96 637.070129
29.98 629.079163
30.00 620.782288
30.02 630.951111
30.04 615.892212
30.06 631.389404
30.08 643.36145
30.10 640.57135
30.12 615.371521
30.14 608.242249
30.16 639.118347
30.18 649.022339
30.20 648.55603
30.22 639.691345
30.24 636.973328
30.26 638.777222
30.28 635.049683
30.30 637.684204
30.32 649.067261
30.34 650.149048
30.36 643.993774
30.38 638.725037
30.40 626.732666
30.42 638.400024
30.44 635.457397
30.46 638.307434
30.48 641.083069
30.50 660.070007
30.52 678.385254
30.54 681.812317
30.56 680.461121
30.58 668.979126
30.60 678.37915
30.62 695.490295
30.64 697.224548
30.66 680.051331
30.68 694.105164
30.70 721.283997
30.72 718.856506
30.74 712.78833
30.76 731.507019
30.78 756.493835
30.80 745.935364
30.82 748.710754
30.84 768.789856
30.86 786.321716
30.88 796.346985
30.90 781.940613
30.92 774.878357
30.94 775.381042
30.96 781.167603
30.98 784.928406
31.00 768.575806
31.02 743.646484
31.04 736.612366
31.06 737.984436
31.08 729.396057
31.10 705.517456
31.12 684.711487
31.14 672.999329
31.16 683.621887
31.18 673.592773
31.20 662.783936
31.22 643.031433
31.24 632.438843
31.26 627.372009
31.28 625.589172
31.30 636.583374
31.32 620.721924
31.34 628.817871
31.36 625.16095
31.38 622.688171
31.40 608.727234
31.42 608.659058
31.44 606.790771
31.46 591.792175
31.48 611.329285
31.50 610.549133
31.52 607.891785
31.54 604.977783
31.56 600.214294
31.58 593.76825
31.60 577.61145
31.62 594.688477
31.64 588.494141
31.66 593.869812
31.68 603.728821
31.70 603.165955
31.72 579.302124
31.74 579.779846
31.76 578.030273
31.78 587.299744
31.80 598.500916
31.82 598.43219
31.84 590.38208
31.86 588.470215
31.88 574.439331
31.90 573.880737
31.92 578.433105
31.94 596.264954
31.96 600.525085
31.98 574.14502
32.00 589.195618
32.02 576.258789
32.04 574.412842
32.06 582.353882
32.08 575.920227
32.10 582.924194
32.12 581.198914
32.14 574.545532
32.16 580.944458
32.18 589.079163
32.20 580.593018
32.22 584.100952
32.24 581.134399
32.26 579.426941
32.28 568.294434
32.30 574.126526
32.32 574.154419
32.34 582.415222
32.36 589.491211
32.38 581.755127
32.40 576.547668
32.42 570.304016
32.44 575.3255
32.46 572.933472
32.48 551.000732
32.50 541.40918
32.52 551.083801
32.54 562.976013
32.56 566.603882
32.58 558.188965
32.60 559.652466
32.62 542.875366
32.64 543.060669
32.66 556.348572
32.68 560.897095
32.70 552.603638
32.72 551.105957
32.74 556.288269
32.76 549.231995
32.78 548.804993
32.80 548.401001
32.82 552.484314
32.84 556.550964
32.86 551.715515
32.88 557.805664
32.90 550.589233
32.92 539.081238
32.94 545.965271
32.96 552.070435
32.98 543.137024
33.00 543.339722
33.02 538.358276
33.04 524.385132
33.06 550.500854
33.08 561.871643
33.10 527.404663
33.12 503.83905
33.14 516.071228
33.16 539.231689
33.18 526.529724
33.20 529.944458
33.22 542.422241
33.24 532.50238
33.26 521.191956
33.28 524.769653
33.30 534.14209
33.32 540.205322
33.34 543.623657
33.36 529.1521
33.38 517.345703
33.40 518.976135
33.42 514.878723
33.44 519.603149
33.46 518.063843
33.48 525.051208
33.50 543.467346
33.52 533.665283
33.54 507.685089
33.56 517.527283
33.58 525.374573
33.60 519.438354
33.62 514.52063
33.64 513.246094
33.66 510.041718
33.68 516.784607
33.70 508.71817
33.72 514.118042
33.74 507.123322
33.76 503.598816
33.78 506.796692
33.80 520.4552
33.82 516.274109
33.84 509.515503
33.86 496.594849
33.88 494.031128
33.90 495.194794
33.92 497.327271
33.94 510.624207
33.96 512.780273
33.98 506.32373
34.00 491.970123
34.02 491.860077
34.04 491.03183
34.06 503.502167
34.08 517.744873
34.10 512.537903
34.12 517.624207
34.14 512.071655
34.16 514.40918
34.18 514.526306
34.20 505.311249
34.22 506.616364
34.24 520.453735
34.26 500.701996
34.28 495.282898
34.30 500.467621
34.32 498.043182
34.34 504.84433
34.36 517.986633
34.38 505.792267
34.40 503.220795
34.42 520.32782
34.44 501.733978
34.46 515.971008
34.48 529.356873
34.50 528.311279
34.52 531.708313
34.54 522.031616
34.56 506.84079
34.58 507.643524
34.60 499.854797
34.62 493.036346
34.64 493.204468
34.66 516.821228
34.68 525.978577
34.70 514.523987
34.72 498.651703
34.74 495.304718
34.76 502.057709
34.78 517.396851
34.80 509.397797
34.82 491.191132
34.84 497.85495
34.86 495.874786
34.88 509.930634
34.90 492.762115
34.92 486.373779
34.94 473.942474
34.96 476.164978
34.98 481.396362
35.00 472.58844
35.02 469.637543
35.04 478.284149
35.06 487.424622
35.08 470.73996
35.10 470.779205
35.12 482.203461
35.14 482.289978
35.16 472.845428
35.18 476.184418
35.20 474.094513
35.22 461.989563
35.24 463.729187
35.26 460.471649
35.28 455.416962
35.30 461.499664
35.32 462.508881
35.34 464.40976
35.36 456.411346
35.38 451.513794
35.40 450.955383
35.42 440.3013
35.44 447.354858
35.46 448.201447
35.48 443.348114
35.50 444.025024
35.52 433.900574
35.54 444.777985
35.56 431.587494
35.58 423.336121
35.60 432.111206
35.62 440.429199
35.64 444.686798
35.66 446.191772
35.68 450.606445
35.70 442.680115
35.72 438.513672
35.74 436.850739
35.76 427.088287
35.78 436.236969
35.80 441.713318
35.82 445.039734
35.84 429.463043
35.86 432.037994
35.88 438.193115
35.90 432.102814
35.92 422.795258
35.94 429.097504
35.96 427.092407
35.98 435.69812
36.00 427.835846
36.02 439.097687
36.04 436.270447
36.06 429.374146
36.08 428.861023
36.10 434.045471
36.12 419.155304
36.14 410.332123
36.16 417.55658
36.18 421.618652
36.20 429.085754
36.22 417.736511
36.24 421.094635
36.26 418.988342
36.28 399.582336
36.30 403.203064
36.32 400.315735
36.34 408.872223
36.36 400.044006
36.38 410.587463
36.40 426.888397
36.42 412.256042
36.44 414.066986
36.46 405.217834
36.48 403.889038
36.50 400.144592
36.52 396.293762
36.54 392.893433
36.56 386.086975
36.58 402.150513
36.60 408.948395
36.62 404.65918
36.64 399.461121
36.66 394.091339
36.68 397.762665
36.70 402.88623
36.72 405.372894
36.74 397.248779
36.76 394.539459
36.78 398.563263
36.80 388.900269
36.82 402.238922
36.84 416.194733
36.86 400.403503
36.88 400.344666
36.90 395.418091
36.92 386.937927
36.94 384.377197
36.96 384.167358
36.98 391.81012
37.00 390.731476
37.02 395.557465
37.04 392.970581
37.06 390.291718
37.08 405.139954
37.10 397.800568
37.12 384.170288
37.14 380.898132
37.16 373.937622
37.18 371.855011
37.20 382.245667
37.22 394.43512
37.24 386.511108
37.26 381.596558
37.28 383.067413
37.30 380.742462
37.32 379.787476
37.34 387.348694
37.36 380.318604
37.38 373.371094
37.40 372.737976
37.42 376.6586
37.44 375.55603
37.46 370.087097
37.48 367.892242
37.50 377.238159
37.52 373.798523
37.54 375.174347
37.56 375.364868
37.58 364.350983
37.60 374.754303
37.62 369.839111
37.64 381.318695
37.66 379.732361
37.68 386.363312
37.70 395.90213
37.72 375.144836
37.74 375.50592
37.76 383.124786
37.78 373.882507
37.80 365.829926
37.82 372.706085
37.84 382.462494
37.86 377.69458
37.88 370.406067
37.90 373.704285
37.92 369.995728
37.94 368.42157
37.96 376.533356
37.98 375.906464
38.00 385.653534
38.02 385.766205
38.04 392.845062
38.06 388.912354
38.08 371.901184
38.10 375.716583
38.12 393.721741
38.14 374.248474
38.16 380.480927
38.18 385.563782
38.20 382.657715
38.22 370.632202
38.24 377.49292
38.26 370.99469
38.28 375.738342
38.30 382.496979
38.32 372.669647
38.34 382.171783
38.36 388.678345
38.38 360.8284
38.40 355.951691
38.42 356.668121
38.44 367.379547
38.46 369.930695
38.48 368.600403
38.50 371.545563
38.52 382.878845
38.54 373.414795
38.56 364.771301
38.58 365.829407
38.60 376.025726
38.62 363.502594
38.64 358.107056
38.66 362.727264
38.68 361.135101
38.70 357.306305
38.72 346.114441
38.74 358.48172
38.76 363.710907
38.78 360.933594
38.80 347.787323
38.82 351.649719
38.84 365.606903
38.86 358.41391
38.88 356.969635
38.90 357.015503
38.92 361.613739
38.94 359.241516
38.96 362.715576
38.98 356.241241
39.00 357.050507
39.02 341.903778
39.04 345.915009
39.06 344.709961
39.08 349.76239
39.10 351.99588
39.12 349.859222
39.14 348.19104
39.16 353.16806
39.18 361.824677
39.20 356.19162
39.22 348.192993
39.24 344.971161
39.26 357.318909
39.28 362.448608
39.30 365.522461
39.32 365.98114
39.34 366.800568
39.36 358.421631
39.38 362.228882
39.40 367.034729
39.42 370.493134
39.44 372.291687
39.46 366.003998
39.48 361.362793
39.50 367.340515
39.52 360.770569
39.54 359.400757
39.56 367.384399
39.58 361.990875
39.60 355.661285
39.62 360.880127
39.64 366.563599
39.66 356.050903
39.68 358.300873
39.70 369.919128
39.72 358.723572
39.74 355.09491
39.76 347.42038
39.78 340.845551
39.80 347.145599
39.82 351.432648
39.84 353.189026
39.86 348.424255
39.88 352.158722
39.90 347.232361
39.92 350.100616
39.94 349.8237
39.96 348.020752
39.98 342.949219
40.00 339.648926
