!@!!GADDS PLOTSO FILE: Chi integration type
!@!!Title/SampleName: ML_MAPbX3
!@!!User: NREL
!@!!Site: NREL SERF C211; SN 2510
!@!!Frame: 081022_MLProject_000_018.gfrm
!@!!Wavelengths    1.54184   1.54056   1.54439
!@!!Frame angles: 2Theta: 28.000 Omega: 5.000 Phi: 0.000 Chi: 90.000
!@!!Integration range: 2Theta: 10.000 to 41.100  Gamma: -120.400 to -60.400
!@!!Integration method: bin normalized
!@!N
!@!SS
!@!M
!@!L 0.0 0.0 0.0 0.0
!@!XDegrees
!@!YCounts
10.00 223.222931
10.01 226.058762
10.02 221.967773
10.03 228.60257
10.04 235.558121
10.05 234.317154
10.06 227.493179
10.07 219.796021
10.08 221.492798
10.09 223.967514
10.10 228.573654
10.11 231.991714
10.12 220.934326
10.13 226.465942
10.14 232.721924
10.15 219.158936
10.16 218.552094
10.17 224.505997
10.18 223.624939
10.19 226.24353
10.20 225.679398
10.21 219.77449
10.22 220.553436
10.23 226.367386
10.24 231.48053
10.25 233.043671
10.26 226.426086
10.27 221.208633
10.28 222.726395
10.29 223.924789
10.30 222.239548
10.31 225.710068
10.32 226.926773
10.33 225.082336
10.34 235.062271
10.35 244.392242
10.36 242.515305
10.37 234.087509
10.38 235.571213
10.39 226.815033
10.40 220.649765
10.41 227.678909
10.42 234.179688
10.43 235.919968
10.44 225.624588
10.45 222.737305
10.46 224.552536
10.47 224.823898
10.48 229.209137
10.49 246.19809
10.50 246.928055
10.51 232.67894
10.52 232.957108
10.53 236.699463
10.54 234.742538
10.55 227.476974
10.56 223.038925
10.57 226.170959
10.58 231.012634
10.59 239.491837
10.60 236.14801
10.61 229.815186
10.62 230.038132
10.63 231.595947
10.64 234.644714
10.65 240.447189
10.66 236.436691
10.67 231.280731
10.68 234.379913
10.69 235.47551
10.70 243.487518
10.71 246.505585
10.72 238.086426
10.73 232.425842
10.74 239.180405
10.75 241.391357
10.76 236.244385
10.77 238.295731
10.78 238.056122
10.79 240.740173
10.80 244.573761
10.81 245.409332
10.82 242.467819
10.83 245.991913
10.84 250.822983
10.85 240.88205
10.86 242.493195
10.87 235.844513
10.88 234.485016
10.89 246.760513
10.90 247.322861
10.91 243.49614
10.92 240.552475
10.93 238.257751
10.94 243.269699
10.95 252.197571
10.96 255.462479
10.97 252.796814
10.98 244.866821
10.99 236.000031
11.00 246.059357
11.01 254.193069
11.02 256.072632
11.03 257.355377
11.04 247.621155
11.05 249.5625
11.06 256.462982
11.07 253.725571
11.08 258.278168
11.09 261.330353
11.10 252.577957
11.11 241.066635
11.12 238.870163
11.13 244.242783
11.14 246.782791
11.15 247.937698
11.16 243.182999
11.17 248.514481
11.18 252.409027
11.19 237.121338
11.20 234.915375
11.21 244.098816
11.22 244.463531
11.23 241.259811
11.24 243.31987
11.25 250.185135
11.26 256.056091
11.27 254.602325
11.28 252.470291
11.29 251.573669
11.30 261.893402
11.31 268.914063
11.32 259.969727
11.33 255.098404
11.34 258.318054
11.35 259.720245
11.36 252.911041
11.37 251.179016
11.38 252.499557
11.39 249.266083
11.40 244.798492
11.41 243.677139
11.42 250.711548
11.43 251.246475
11.44 246.797745
11.45 248.999588
11.46 258.522247
11.47 263.762238
11.48 263.615082
11.49 261.663971
11.50 253.065964
11.51 249.411667
11.52 254.325592
11.53 247.651321
11.54 249.63443
11.55 264.741882
11.56 268.689789
11.57 263.627258
11.58 257.967773
11.59 252.678207
11.60 255.082596
11.61 258.681885
11.62 259.509979
11.63 260.128021
11.64 255.535034
11.65 248.212814
11.66 252.216736
11.67 261.560791
11.68 259.776733
11.69 254.289398
11.70 256.212677
11.71 260.330933
11.72 263.258179
11.73 263.226837
11.74 263.491302
11.75 267.157867
11.76 263.30307
11.77 251.772507
11.78 253.265671
11.79 256.248932
11.80 259.363586
11.81 273.75824
11.82 278.577332
11.83 277.154205
11.84 272.189209
11.85 266.254761
11.86 262.854797
11.87 263.473724
11.88 265.627136
11.89 263.875122
11.90 267.024597
11.91 270.054199
11.92 272.568604
11.93 278.294952
11.94 273.925232
11.95 267.459869
11.96 265.914886
11.97 269.250488
11.98 270.823761
11.99 267.028259
12.00 262.317322
12.01 262.030762
12.02 266.960663
12.03 271.465515
12.04 274.172089
12.05 272.144714
12.06 273.701355
12.07 275.963257
12.08 279.012909
12.09 283.346222
12.10 285.233032
12.11 287.920898
12.12 281.821808
12.13 268.774994
12.14 271.38147
12.15 278.825775
12.16 281.608582
12.17 289.607147
12.18 289.016144
12.19 279.129547
12.20 280.446991
12.21 285.454437
12.22 290.628876
12.23 287.71698
12.24 288.873871
12.25 294.343018
12.26 289.307007
12.27 285.936554
12.28 286.165222
12.29 287.156769
12.30 281.492493
12.31 277.667297
12.32 281.146088
12.33 277.847168
12.34 267.692322
12.35 268.079803
12.36 273.762909
12.37 284.148041
12.38 298.249512
12.39 295.932739
12.40 286.385742
12.41 286.320496
12.42 294.247925
12.43 294.138641
12.44 299.966217
12.45 298.353424
12.46 287.989044
12.47 284.545746
12.48 281.457367
12.49 287.351044
12.50 306.084167
12.51 309.539673
12.52 298.811401
12.53 291.944275
12.54 289.287231
12.55 297.55365
12.56 300.766785
12.57 303.705292
12.58 306.86792
12.59 302.725342
12.60 306.954834
12.61 313.702209
12.62 310.932098
12.63 303.756561
12.64 307.582275
12.65 303.211121
12.66 296.179352
12.67 297.5177
12.68 290.495819
12.69 296.824127
12.70 299.480957
12.71 290.552948
12.72 293.711334
12.73 293.493927
12.74 301.038727
12.75 313.65387
12.76 311.268219
12.77 300.448212
12.78 291.671661
12.79 293.886017
12.80 299.028717
12.81 300.480865
12.82 302.592255
12.83 308.849915
12.84 304.035217
12.85 298.001892
12.86 303.85437
12.87 306.507935
12.88 303.039459
12.89 292.54541
12.90 293.185577
12.91 294.055481
12.92 293.565094
12.93 295.500427
12.94 290.503113
12.95 298.258759
12.96 305.111023
12.97 292.446167
12.98 287.811127
12.99 291.355835
13.00 288.368958
13.01 291.264801
13.02 297.464478
13.03 296.0802
13.04 293.054199
13.05 290.233032
13.06 295.721252
13.07 297.091522
13.08 292.407013
13.09 288.013611
13.10 288.004333
13.11 290.480438
13.12 289.703125
13.13 291.160706
13.14 298.06546
13.15 298.973694
13.16 297.507904
13.17 293.114685
13.18 302.045776
13.19 310.208344
13.20 307.675842
13.21 306.261078
13.22 296.23288
13.23 288.677124
13.24 286.402771
13.25 290.748352
13.26 298.303802
13.27 298.41098
13.28 294.754211
13.29 292.650116
13.30 291.697235
13.31 296.089355
13.32 301.034271
13.33 303.64505
13.34 302.450043
13.35 301.429962
13.36 296.657776
13.37 293.168884
13.38 294.527893
13.39 294.747803
13.40 301.670105
13.41 301.312347
13.42 292.640198
13.43 293.199432
13.44 289.573273
13.45 278.7612
13.46 278.133667
13.47 283.1008
13.48 289.695007
13.49 296.338989
13.50 293.859863
13.51 284.713104
13.52 285.097595
13.53 288.281464
13.54 292.4617
13.55 296.624817
13.56 300.733643
13.57 299.151825
13.58 304.560608
13.59 314.661957
13.60 310.448456
13.61 301.490479
13.62 293.915192
13.63 284.841309
13.64 286.043915
13.65 298.809814
13.66 300.312408
13.67 302.321045
13.68 305.756989
13.69 305.082794
13.70 304.315765
13.71 295.373962
13.72 288.604218
13.73 290.079498
13.74 294.648651
13.75 291.779602
13.76 291.03656
13.77 300.248901
13.78 313.966217
13.79 314.189331
13.80 301.077972
13.81 292.277863
13.82 287.069458
13.83 289.053253
13.84 302.333405
13.85 313.177856
13.86 309.788605
13.87 308.819092
13.88 309.790466
13.89 312.001801
13.90 311.717712
13.91 313.132965
13.92 306.442841
13.93 308.617065
13.94 311.705597
13.95 300.261841
13.96 296.826416
13.97 304.530334
13.98 305.094574
13.99 293.519287
14.00 288.411987
14.01 292.797546
14.02 290.214813
14.03 292.040283
14.04 304.288696
14.05 307.285492
14.06 305.995819
14.07 311.521484
14.08 312.015961
14.09 309.387146
14.10 305.394897
14.11 296.144501
14.12 299.521942
14.13 315.679749
14.14 317.050964
14.15 309.676605
14.16 308.634766
14.17 311.252045
14.18 312.686951
14.19 309.601593
14.20 307.994324
14.21 312.363007
14.22 313.180573
14.23 307.108459
14.24 305.115875
14.25 310.301147
14.26 315.91983
14.27 307.641235
14.28 301.223663
14.29 307.972443
14.30 312.607697
14.31 315.788574
14.32 314.132385
14.33 307.87384
14.34 305.50174
14.35 305.665192
14.36 309.561249
14.37 307.996307
14.38 304.242828
14.39 303.719727
14.40 307.133698
14.41 311.964905
14.42 313.609406
14.43 308.516541
14.44 298.746094
14.45 304.966278
14.46 313.053345
14.47 312.635345
14.48 311.516602
14.49 305.223175
14.50 305.334991
14.51 306.449036
14.52 306.072998
14.53 310.871246
14.54 308.930237
14.55 317.556274
14.56 321.631073
14.57 319.43631
14.58 326.697876
14.59 327.422668
14.60 322.953918
14.61 321.523621
14.62 329.094055
14.63 335.039124
14.64 327.647278
14.65 317.265961
14.66 315.03067
14.67 317.921967
14.68 326.460236
14.69 332.999878
14.70 324.380219
14.71 321.4776
14.72 332.369049
14.73 347.588165
14.74 354.538361
14.75 347.838989
14.76 346.475159
14.77 342.512421
14.78 333.403351
14.79 333.551422
14.80 337.158661
14.81 343.422913
14.82 352.179626
14.83 352.123444
14.84 350.60611
14.85 357.159271
14.86 357.726685
14.87 352.087769
14.88 351.711609
14.89 360.250671
14.90 372.474457
14.91 383.771881
14.92 381.886444
14.93 375.058624
14.94 373.029877
14.95 373.431122
14.96 383.004486
14.97 397.527832
14.98 411.821228
14.99 417.077881
15.00 422.192535
15.01 417.494263
15.02 420.812927
15.03 428.134735
15.04 433.167847
15.05 437.965149
15.06 437.28952
15.07 442.586945
15.08 453.084869
15.09 455.328156
15.10 464.809265
15.11 473.141754
15.12 488.496948
15.13 507.523804
15.14 523.070435
15.15 546.419495
15.16 550.511169
15.17 555.506348
15.18 563.367188
15.19 577.450012
15.20 592.767456
15.21 611.014832
15.22 607.628601
15.23 614.367737
15.24 621.585632
15.25 635.659119
15.26 660.12085
15.27 678.715698
15.28 695.407471
15.29 712.059204
15.30 731.018616
15.31 740.255188
15.32 777.736816
15.33 796.701172
15.34 807.472656
15.35 824.086975
15.36 844.750916
15.37 859.212952
15.38 902.734863
15.39 917.978882
15.40 935.667603
15.41 950.237061
15.42 953.234497
15.43 973.179871
15.44 985.667908
15.45 980.196533
15.46 988.538452
15.47 998.527161
15.48 1001.896118
15.49 1013.836426
15.50 1012.408813
15.51 989.833862
15.52 980.440674
15.53 951.521484
15.54 941.900696
15.55 931.630554
15.56 920.295654
15.57 909.622437
15.58 891.760071
15.59 863.668396
15.60 830.03064
15.61 802.407715
15.62 765.876648
15.63 736.67688
15.64 711.410156
15.65 700.524109
15.66 664.625
15.67 642.835754
15.68 614.154053
15.69 601.878235
15.70 577.710205
15.71 564.733704
15.72 551.144348
15.73 541.016846
15.74 533.864502
15.75 520.285889
15.76 498.212097
15.77 484.997864
15.78 474.165253
15.79 470.050598
15.80 475.543457
15.81 464.263733
15.82 449.68042
15.83 444.113312
15.84 443.416138
15.85 437.292023
15.86 437.016144
15.87 443.101257
15.88 438.260162
15.89 422.550873
15.90 415.286041
15.91 418.688812
15.92 414.095154
15.93 415.071259
15.94 417.820709
15.95 415.373474
15.96 408.410492
15.97 407.540283
15.98 405.09549
15.99 395.895508
16.00 382.862854
16.01 386.423859
16.02 393.835144
16.03 390.575104
16.04 388.926483
16.05 390.65036
16.06 383.859436
16.07 383.490417
16.08 389.672485
16.09 390.082275
16.10 388.088379
16.11 381.827271
16.12 378.234344
16.13 377.834229
16.14 386.42807
16.15 381.986328
16.16 368.298126
16.17 355.206512
16.18 348.276459
16.19 359.046661
16.20 371.851532
16.21 374.393066
16.22 376.509155
16.23 371.176636
16.24 362.440521
16.25 357.26825
16.26 345.384705
16.27 337.981995
16.28 345.657867
16.29 353.153076
16.30 352.557556
16.31 359.333252
16.32 362.657196
16.33 352.824524
16.34 351.969818
16.35 354.927734
16.36 351.874359
16.37 347.34906
16.38 352.018982
16.39 347.603088
16.40 341.50708
16.41 346.955139
16.42 342.660645
16.43 340.438171
16.44 345.22818
16.45 348.177826
16.46 348.204956
16.47 351.012665
16.48 353.873657
16.49 356.796875
16.50 362.046783
16.51 356.824432
16.52 350.716492
16.53 342.730927
16.54 340.081482
16.55 345.843964
16.56 353.507294
16.57 359.766663
16.58 362.696289
16.59 355.250946
16.60 348.259216
16.61 345.813293
16.62 349.204681
16.63 352.135376
16.64 348.870453
16.65 347.886414
16.66 347.745178
16.67 343.334412
16.68 349.763824
16.69 361.3367
16.70 364.49588
16.71 359.323822
16.72 354.074036
16.73 353.035797
16.74 352.416534
16.75 350.734558
16.76 344.82962
16.77 338.651794
16.78 334.851776
16.79 339.193481
16.80 344.698425
16.81 346.386383
16.82 348.46402
16.83 349.000641
16.84 339.25708
16.85 336.913574
16.86 344.870911
16.87 347.791168
16.88 348.013763
16.89 350.637329
16.90 344.112091
16.91 336.699554
16.92 334.319641
16.93 339.433624
16.94 344.908661
16.95 345.839142
16.96 346.720184
16.97 344.17218
16.98 339.57608
16.99 345.305969
17.00 350.993561
17.01 352.827301
17.02 361.951355
17.03 362.894104
17.04 360.399506
17.05 361.842194
17.06 361.978699
17.07 363.58905
17.08 366.073639
17.09 362.410858
17.10 357.261719
17.11 350.957855
17.12 350.781097
17.13 357.639496
17.14 364.049164
17.15 360.243073
17.16 352.099884
17.17 348.679718
17.18 354.476074
17.19 351.088013
17.20 354.460449
17.21 360.927795
17.22 360.428467
17.23 350.947327
17.24 344.438507
17.25 351.242706
17.26 358.395996
17.27 354.475403
17.28 353.033752
17.29 352.059052
17.30 351.034821
17.31 352.692322
17.32 354.896423
17.33 358.651459
17.34 355.39444
17.35 359.403442
17.36 368.533356
17.37 367.917236
17.38 363.390167
17.39 359.260468
17.40 354.10434
17.41 355.825867
17.42 356.118622
17.43 352.168976
17.44 360.765747
17.45 366.873779
17.46 363.798798
17.47 355.390289
17.48 349.569824
17.49 351.131714
17.50 362.429382
17.51 374.499695
17.52 372.152222
17.53 362.015991
17.54 358.388245
17.55 356.632416
17.56 350.087372
17.57 349.680725
17.58 357.518921
17.59 362.871399
17.60 368.114197
17.61 364.274994
17.62 357.678131
17.63 360.11203
17.64 356.788116
17.65 364.098969
17.66 370.401733
17.67 367.778717
17.68 360.493195
17.69 353.471832
17.70 356.493591
17.71 363.975433
17.72 367.508759
17.73 366.726807
17.74 368.372467
17.75 365.215332
17.76 360.30899
17.77 367.378021
17.78 369.436523
17.79 370.963165
17.80 377.687103
17.81 378.822449
17.82 376.582977
17.83 376.577423
17.84 376.724731
17.85 372.551239
17.86 369.985199
17.87 368.216614
17.88 366.440277
17.89 368.062439
17.90 367.362854
17.91 366.847717
17.92 368.519501
17.93 372.709869
17.94 370.268158
17.95 363.994843
17.96 368.140106
17.97 376.476166
17.98 385.509064
17.99 389.325134
18.00 386.383087
18.01 386.109955
18.02 383.05014
18.03 380.913879
18.04 381.767609
18.05 386.26062
18.06 390.005646
18.07 394.659027
18.08 386.688812
18.09 379.854034
18.10 375.313477
18.11 378.636902
18.12 382.511383
18.13 386.331909
18.14 389.608582
18.15 394.037445
18.16 391.759308
18.17 385.191772
18.18 387.22287
18.19 388.069122
18.20 389.661469
18.21 388.902496
18.22 381.019165
18.23 380.166931
18.24 388.526093
18.25 397.79303
18.26 398.606659
18.27 389.410919
18.28 386.43689
18.29 390.019775
18.30 392.57785
18.31 399.257416
18.32 403.251617
18.33 406.966858
18.34 407.159271
18.35 405.285858
18.36 403.118103
18.37 396.563782
18.38 401.446228
18.39 403.238647
18.40 394.077393
18.41 395.095825
18.42 395.386566
18.43 392.595581
18.44 386.549316
18.45 388.041779
18.46 395.059357
18.47 395.295197
18.48 393.385956
18.49 394.946045
18.50 395.961517
18.51 395.207855
18.52 397.085144
18.53 396.368469
18.54 397.447998
18.55 401.847992
18.56 405.783813
18.57 411.22699
18.58 403.583374
18.59 393.070007
18.60 389.79834
18.61 389.439209
18.62 396.800201
18.63 408.368469
18.64 410.622284
18.65 408.392395
18.66 406.882782
18.67 405.055725
18.68 408.78067
18.69 418.131775
18.70 420.640289
18.71 413.657318
18.72 404.998138
18.73 401.170685
18.74 400.106537
18.75 394.87735
18.76 392.664581
18.77 396.336914
18.78 404.839966
18.79 411.258209
18.80 409.577637
18.81 409.466583
18.82 410.726929
18.83 405.445892
18.84 403.996552
18.85 409.17099
18.86 412.126556
18.87 410.567627
18.88 410.245117
18.89 411.344818
18.90 415.338989
18.91 420.346924
18.92 422.551819
18.93 414.659821
18.94 415.836212
18.95 426.193634
18.96 428.761505
18.97 426.761261
18.98 419.471344
18.99 416.662445
19.00 412.26947
19.01 417.266418
19.02 422.227722
19.03 423.576813
19.04 427.686737
19.05 427.804993
19.06 425.320068
19.07 424.015686
19.08 429.963654
19.09 428.519501
19.10 425.267517
19.11 425.582458
19.12 425.615234
19.13 416.258301
19.14 414.727509
19.15 420.515594
19.16 420.774841
19.17 418.901794
19.18 421.125275
19.19 433.091095
19.20 433.460022
19.21 427.077789
19.22 423.972412
19.23 425.983368
19.24 432.805756
19.25 437.820587
19.26 428.786774
19.27 432.253326
19.28 440.033356
19.29 436.771606
19.30 431.019073
19.31 428.742157
19.32 428.465179
19.33 429.259613
19.34 423.400513
19.35 419.606689
19.36 428.916809
19.37 439.009003
19.38 441.789124
19.39 439.591064
19.40 438.504028
19.41 436.214111
19.42 435.879608
19.43 434.613403
19.44 423.225891
19.45 422.061768
19.46 430.665833
19.47 434.302795
19.48 437.166595
19.49 443.790344
19.50 449.775696
19.51 460.969513
19.52 455.212006
19.53 445.342133
19.54 444.759247
19.55 443.202515
19.56 439.527466
19.57 441.277771
19.58 447.242859
19.59 451.649139
19.60 452.873474
19.61 455.0383
19.62 453.347107
19.63 457.450684
19.64 450.318298
19.65 444.058319
19.66 442.134949
19.67 443.817596
19.68 445.745178
19.69 446.750061
19.70 449.721497
19.71 450.737122
19.72 451.996979
19.73 455.248596
19.74 458.599609
19.75 454.50769
19.76 450.071381
19.77 450.921539
19.78 452.225006
19.79 454.84433
19.80 453.030853
19.81 450.805969
19.82 449.963928
19.83 448.301788
19.84 449.641815
19.85 457.029144
19.86 460.546539
19.87 453.945374
19.88 445.449982
19.89 446.615784
19.90 446.360504
19.91 452.453003
19.92 456.291351
19.93 458.041046
19.94 457.49054
19.95 461.341156
19.96 474.260742
19.97 468.9422
19.98 462.763
19.99 468.653229
20.00 467.981964
20.01 467.011017
20.02 461.793976
20.03 463.759003
20.04 462.286499
20.05 459.356049
20.06 462.915222
20.07 471.247284
20.08 474.097076
20.09 479.937286
20.10 478.094269
20.11 477.487518
20.12 477.060364
20.13 469.657928
20.14 461.301483
20.15 462.939056
20.16 467.520752
20.17 461.32962
20.18 466.107056
20.19 480.717865
20.20 480.605286
20.21 474.257965
20.22 469.145172
20.23 464.580109
20.24 467.46344
20.25 477.164459
20.26 485.188171
20.27 482.633087
20.28 479.282349
20.29 482.298431
20.30 482.37439
20.31 481.139343
20.32 480.650238
20.33 477.137451
20.34 481.90921
20.35 475.088776
20.36 469.836975
20.37 472.699982
20.38 477.551361
20.39 488.390137
20.40 490.705597
20.41 493.731689
20.42 497.506653
20.43 485.599579
20.44 473.460846
20.45 477.747589
20.46 485.113556
20.47 486.630676
20.48 493.518829
20.49 498.891266
20.50 495.500702
20.51 500.322754
20.52 500.827911
20.53 491.501648
20.54 483.516541
20.55 473.793823
20.56 466.478607
20.57 478.857269
20.58 488.811676
20.59 483.607666
20.60 481.841125
20.61 485.406219
20.62 488.540527
20.63 490.421661
20.64 492.081512
20.65 488.633209
20.66 485.260773
20.67 489.172119
20.68 497.124237
20.69 502.237915
20.70 495.295624
20.71 492.860077
20.72 493.786682
20.73 493.669556
20.74 492.153229
20.75 486.73819
20.76 491.818085
20.77 500.153656
20.78 508.328064
20.79 510.155487
20.80 506.760803
20.81 498.722748
20.82 501.905029
20.83 513.090027
20.84 516.644287
20.85 527.585754
20.86 531.682007
20.87 531.579102
20.88 524.403748
20.89 521.518311
20.90 516.242554
20.91 512.353088
20.92 506.786774
20.93 506.92865
20.94 513.362976
20.95 515.972595
20.96 521.996704
20.97 528.832397
20.98 522.441162
20.99 515.018311
21.00 510.092926
21.01 509.544891
21.02 515.033936
21.03 518.512634
21.04 518.333679
21.05 520.487
21.06 524.50946
21.07 528.561218
21.08 523.360596
21.09 509.823639
21.10 507.405823
21.11 506.89917
21.12 510.137482
21.13 515.362854
21.14 526.303345
21.15 532.175903
21.16 534.762024
21.17 530.271484
21.18 531.966797
21.19 533.656189
21.20 530.427002
21.21 527.564819
21.22 521.016357
21.23 519.892517
21.24 519.512207
21.25 524.852234
21.26 522.546692
21.27 524.561646
21.28 537.373535
21.29 540.229736
21.30 537.143677
21.31 524.519287
21.32 524.661255
21.33 528.861267
21.34 533.299316
21.35 531.828918
21.36 530.836548
21.37 527.767822
21.38 524.822266
21.39 526.32843
21.40 527.034546
21.41 528.739502
21.42 529.641113
21.43 540.232605
21.44 546.526672
21.45 538.94165
21.46 536.639465
21.47 536.627747
21.48 533.164368
21.49 542.796448
21.50 550.290771
21.51 550.615601
21.52 546.458191
21.53 539.562622
21.54 549.425476
21.55 555.613464
21.56 557.439148
21.57 562.721069
21.58 554.764282
21.59 548.744873
21.60 555.512512
21.61 558.269836
21.62 552.17804
21.63 550.468262
21.64 549.648193
21.65 545.73114
21.66 543.473083
21.67 541.090881
21.68 547.097107
21.69 560.304993
21.70 566.134644
21.71 568.250732
21.72 570.260071
21.73 572.925537
21.74 569.691467
21.75 554.880005
21.76 556.266296
21.77 569.978333
21.78 577.559631
21.79 580.775635
21.80 589.968506
21.81 582.526184
21.82 581.680176
21.83 586.75177
21.84 577.733765
21.85 578.57605
21.86 586.086792
21.87 588.978577
21.88 583.353333
21.89 577.454773
21.90 576.579529
21.91 583.237427
21.92 590.870544
21.93 587.449219
21.94 579.128357
21.95 584.529541
21.96 588.814209
21.97 580.676025
21.98 577.682861
21.99 577.576111
22.00 577.747803
22.01 576.913086
22.02 584.889893
22.03 595.062134
22.04 588.787231
22.05 576.781006
22.06 579.931824
22.07 582.294434
22.08 581.018005
22.09 573.672119
22.10 566.881775
22.11 559.224854
22.12 559.835938
22.13 570.613525
22.14 580.725281
22.15 579.67041
22.16 575.365051
22.17 574.035095
22.18 578.953918
22.19 582.261475
22.20 582.36908
22.21 573.889526
22.22 569.591064
22.23 570.914307
22.24 560.124023
22.25 560.892273
22.26 572.721558
22.27 572.700012
22.28 575.210144
22.29 578.691467
22.30 578.724731
22.31 577.910034
22.32 573.5578
22.33 567.142761
22.34 563.852966
22.35 565.505005
22.36 570.128967
22.37 576.61554
22.38 577.596985
22.39 580.649414
22.40 583.516968
22.41 590.039063
22.42 589.490601
22.43 582.16803
22.44 577.775208
22.45 577.390991
22.46 580.361572
22.47 581.264221
22.48 582.843201
22.49 583.10083
22.50 581.507996
22.51 587.417053
22.52 586.40863
22.53 584.159973
22.54 583.312317
22.55 583.810242
22.56 583.083252
22.57 583.182861
22.58 575.421143
22.59 571.117371
22.60 575.130859
22.61 583.019958
22.62 582.52417
22.63 577.971741
22.64 570.097961
22.65 576.105774
22.66 590.070068
22.67 591.420776
22.68 587.421753
22.69 582.910828
22.70 582.082703
22.71 582.043762
22.72 578.815308
22.73 578.247131
22.74 586.638489
22.75 590.917664
22.76 582.186218
22.77 582.794983
22.78 583.115479
22.79 584.354126
22.80 585.355103
22.81 593.237488
22.82 603.197693
22.83 603.481873
22.84 595.200134
22.85 584.027832
22.86 582.472412
22.87 579.424377
22.88 573.100098
22.89 573.653564
22.90 582.208191
22.91 586.527283
22.92 583.586426
22.93 586.158142
22.94 588.102295
22.95 583.685364
22.96 584.927917
22.97 594.57489
22.98 602.010071
22.99 617.517761
23.00 621.890137
23.01 613.416931
23.02 607.453308
23.03 600.754944
23.04 592.473816
23.05 590.957214
23.06 596.229553
23.07 598.21167
23.08 591.377869
23.09 587.234131
23.10 586.496887
23.11 585.573181
23.12 591.925415
23.13 596.468811
23.14 594.607239
23.15 598.188599
23.16 595.263367
23.17 592.769409
23.18 599.487915
23.19 603.928284
23.20 614.412903
23.21 617.342102
23.22 613.951355
23.23 613.951599
23.24 611.535767
23.25 608.701904
23.26 609.227722
23.27 605.060669
23.28 613.150513
23.29 609.449524
23.30 599.432007
23.31 602.541626
23.32 606.319336
23.33 604.62677
23.34 610.810791
23.35 610.38031
23.36 604.531128
23.37 602.513428
23.38 606.203003
23.39 611.162781
23.40 609.896179
23.41 612.688232
23.42 613.913086
23.43 612.392639
23.44 607.958252
23.45 602.739136
23.46 603.141846
23.47 599.650879
23.48 595.782715
23.49 596.537109
23.50 598.287659
23.51 603.622803
23.52 604.506531
23.53 604.855408
23.54 603.043396
23.55 600.472046
23.56 611.159668
23.57 612.030701
23.58 601.9151
23.59 606.07843
23.60 613.633484
23.61 612.158142
23.62 606.07843
23.63 602.049194
23.64 606.720703
23.65 614.92926
23.66 612.890869
23.67 610.546814
23.68 602.720276
23.69 595.790283
23.70 600.912415
23.71 608.156433
23.72 621.541077
23.73 624.066589
23.74 616.156677
23.75 616.175781
23.76 610.374695
23.77 609.552307
23.78 614.812683
23.79 615.21405
23.80 611.509155
23.81 611.636963
23.82 615.611877
23.83 629.191711
23.84 632.972656
23.85 632.42749
23.86 632.503723
23.87 628.606873
23.88 625.30426
23.89 621.716003
23.90 618.072388
23.91 620.989563
23.92 622.06189
23.93 619.663635
23.94 615.205688
23.95 612.179932
23.96 606.28241
23.97 598.20459
23.98 604.044739
23.99 613.31311
24.00 614.40094
24.01 610.954346
24.02 605.063538
24.03 602.998291
24.04 607.472717
24.05 606.96228
24.06 606.868408
24.07 603.93927
24.08 609.916504
24.09 614.028381
24.10 609.96106
24.11 609.062927
24.12 617.960266
24.13 626.866333
24.14 625.269714
24.15 622.453979
24.16 616.243164
24.17 613.211792
24.18 620.084595
24.19 622.844666
24.20 620.274231
24.21 619.19342
24.22 614.266235
24.23 611.854797
24.24 616.511841
24.25 621.964233
24.26 627.271545
24.27 624.88678
24.28 623.306396
24.29 620.832458
24.30 623.231445
24.31 624.515259
24.32 627.198792
24.33 634.914246
24.34 633.615417
24.35 631.344177
24.36 631.469666
24.37 631.015381
24.38 625.715637
24.39 617.175781
24.40 615.136475
24.41 616.808228
24.42 614.153076
24.43 608.184875
24.44 612.335815
24.45 614.856201
24.46 607.336914
24.47 606.823792
24.48 608.16864
24.49 609.465149
24.50 619.097534
24.51 619.07782
24.52 614.801697
24.53 620.665833
24.54 619.125793
24.55 616.210693
24.56 624.157593
24.57 624.188416
24.58 618.658325
24.59 618.979675
24.60 630.217834
24.61 634.733826
24.62 632.719482
24.63 628.654663
24.64 626.874939
24.65 624.285767
24.66 619.764893
24.67 607.321899
24.68 605.04541
24.69 612.372986
24.70 612.646301
24.71 619.078491
24.72 628.8396
24.73 624.434875
24.74 616.559143
24.75 613.115173
24.76 613.950745
24.77 619.172852
24.78 618.863892
24.79 621.290955
24.80 621.64093
24.81 615.105713
24.82 617.108704
24.83 618.56842
24.84 612.446777
24.85 609.994019
24.86 609.9151
24.87 617.377075
24.88 620.836731
24.89 621.831787
24.90 620.235779
24.91 617.370056
24.92 614.995483
24.93 614.804321
24.94 622.191711
24.95 629.663879
24.96 621.274597
24.97 611.867676
24.98 607.337585
24.99 610.13678
25.00 625.704041
25.01 635.789368
25.02 633.097412
25.03 630.325989
25.04 628.456909
25.05 619.985657
25.06 618.267517
25.07 614.464417
25.08 614.538574
25.09 617.460693
25.10 619.235352
25.11 620.232483
25.12 618.923401
25.13 622.640564
25.14 626.738037
25.15 628.118469
25.16 624.896973
25.17 617.396362
25.18 615.857239
25.19 615.128967
25.20 616.202637
25.21 614.607361
25.22 618.448792
25.23 626.309143
25.24 633.491089
25.25 634.814148
25.26 629.928833
25.27 626.00769
25.28 623.961548
25.29 623.145142
25.30 626.11145
25.31 633.019836
25.32 633.030457
25.33 628.41925
25.34 627.036316
25.35 619.762268
25.36 610.694946
25.37 610.550598
25.38 609.740112
25.39 616.040283
25.40 626.800476
25.41 625.188843
25.42 621.26886
25.43 627.002686
25.44 628.573486
25.45 629.700867
25.46 627.433044
25.47 617.075195
25.48 610.448669
25.49 614.750793
25.50 616.699585
25.51 616.068909
25.52 614.050964
25.53 617.562256
25.54 624.31604
25.55 629.786682
25.56 626.431946
25.57 628.08252
25.58 634.042847
25.59 632.280701
25.60 633.612427
25.61 631.982422
25.62 628.398865
25.63 628.203979
25.64 619.870361
25.65 615.778748
25.66 619.910889
25.67 623.766174
25.68 622.126648
25.69 615.401794
25.70 620.311218
25.71 627.174744
25.72 627.869202
25.73 631.362915
25.74 630.672607
25.75 637.04187
25.76 636.012268
25.77 622.706055
25.78 627.672058
25.79 626.864563
25.80 618.687622
25.81 627.660828
25.82 630.804199
25.83 618.910583
25.84 618.073914
25.85 622.631958
25.86 622.932495
25.87 624.829407
25.88 622.473755
25.89 616.472412
25.90 621.535461
25.91 626.854004
25.92 627.481201
25.93 627.575867
25.94 628.347229
25.95 621.919434
25.96 621.130615
25.97 625.563049
25.98 620.642151
25.99 615.815125
26.00 618.956238
26.01 622.730469
26.02 633.539795
26.03 632.494934
26.04 622.564636
26.05 616.248352
26.06 616.890137
26.07 619.04895
26.08 621.983521
26.09 624.73822
26.10 621.443237
26.11 613.167786
26.12 617.055298
26.13 625.889282
26.14 624.131653
26.15 626.463745
26.16 631.231567
26.17 628.887512
26.18 625.778015
26.19 619.94397
26.20 621.801514
26.21 629.838074
26.22 628.614319
26.23 620.418152
26.24 615.16394
26.25 618.190613
26.26 627.753479
26.27 623.359558
26.28 617.398865
26.29 622.644714
26.30 627.481689
26.31 627.06665
26.32 622.87677
26.33 619.436584
26.34 621.801758
26.35 616.478271
26.36 611.251038
26.37 617.932068
26.38 619.817261
26.39 611.336487
26.40 609.350647
26.41 610.927185
26.42 612.799072
26.43 606.519897
26.44 607.584656
26.45 611.60791
26.46 609.278015
26.47 606.138428
26.48 608.616699
26.49 612.282593
26.50 622.393921
26.51 625.98938
26.52 618.764282
26.53 613.036804
26.54 613.791626
26.55 614.521179
26.56 621.744629
26.57 617.704529
26.58 608.453918
26.59 610.921936
26.60 608.690308
26.61 605.459229
26.62 607.711609
26.63 615.108826
26.64 616.979614
26.65 611.325684
26.66 613.106506
26.67 611.001465
26.68 611.895203
26.69 617.50708
26.70 612.500977
26.71 608.364197
26.72 608.043152
26.73 610.462646
26.74 615.88678
26.75 612.841248
26.76 608.551941
26.77 611.840271
26.78 609.46582
26.79 604.765503
26.80 599.123047
26.81 592.578369
26.82 597.630249
26.83 610.694397
26.84 618.053772
26.85 618.476868
26.86 618.321533
26.87 614.792053
26.88 612.750244
26.89 612.466492
26.90 612.664612
26.91 616.974487
26.92 618.497131
26.93 619.12561
26.94 613.240967
26.95 608.420837
26.96 607.691345
26.97 614.502014
26.98 616.675293
26.99 618.107544
27.00 620.743469
27.01 621.172974
27.02 611.622009
27.03 606.815186
27.04 611.875427
27.05 614.411621
27.06 614.744507
27.07 612.812561
27.08 606.463013
27.09 603.742004
27.10 601.501038
27.11 597.799927
27.12 605.549622
27.13 608.108032
27.14 609.768555
27.15 613.879395
27.16 615.566589
27.17 616.711182
27.18 612.57428
27.19 615.518005
27.20 621.787231
27.21 617.826416
27.22 612.203186
27.23 612.06897
27.24 619.762512
27.25 618.086304
27.26 608.374878
27.27 607.239136
27.28 610.639404
27.29 612.051208
27.30 609.249817
27.31 610.886963
27.32 613.28241
27.33 607.931152
27.34 602.339294
27.35 599.185913
27.36 603.021973
27.37 615.761536
27.38 614.437744
27.39 604.333191
27.40 595.882935
27.41 600.222595
27.42 598.412781
27.43 600.994324
27.44 608.18512
27.45 609.85675
27.46 620.867981
27.47 627.828979
27.48 624.737183
27.49 618.756836
27.50 618.399963
27.51 619.604004
27.52 615.862183
27.53 601.206604
27.54 591.466187
27.55 591.338318
27.56 597.487244
27.57 602.821533
27.58 602.908203
27.59 598.705261
27.60 596.503174
27.61 600.692322
27.62 605.443787
27.63 613.083252
27.64 622.864319
27.65 616.668213
27.66 602.506042
27.67 598.438843
27.68 600.220276
27.69 601.556519
27.70 601.5
27.71 604.847046
27.72 606.129944
27.73 601.02594
27.74 595.434814
27.75 605.502136
27.76 618.946594
27.77 614.319397
27.78 605.14447
27.79 606.702576
27.80 611.225342
27.81 610.078552
27.82 602.055908
27.83 597.269775
27.84 604.56665
27.85 614.006104
27.86 616.664063
27.87 616.179688
27.88 622.362549
27.89 622.315063
27.90 609.889099
27.91 598.396606
27.92 592.183655
27.93 592.883118
27.94 599.301636
27.95 605.594116
27.96 609.297241
27.97 615.621948
27.98 625.44873
27.99 623.154297
28.00 613.585205
28.01 607.456482
28.02 607.19397
28.03 608.764954
28.04 604.428406
28.05 600.265076
28.06 596.916931
28.07 594.89032
28.08 600.073608
28.09 611.115356
28.10 615.333923
28.11 612.985352
28.12 602.708313
28.13 592.250854
28.14 585.462524
28.15 596.10791
28.16 603.950684
28.17 601.077026
28.18 602.902954
28.19 599.179565
28.20 600.667114
28.21 610.08844
28.22 608.805359
28.23 603.398254
28.24 610.787292
28.25 609.696289
28.26 604.198425
28.27 600.729858
28.28 598.312134
28.29 599.171753
28.30 609.951416
28.31 611.718384
28.32 601.948425
28.33 595.218262
28.34 599.934326
28.35 608.169373
28.36 608.104126
28.37 605.906616
28.38 605.482788
28.39 603.792236
28.40 597.215454
28.41 604.837524
28.42 606.220703
28.43 601.825684
28.44 597.170654
28.45 595.306946
28.46 595.313904
28.47 602.201721
28.48 606.075378
28.49 602.939758
28.50 603.406311
28.51 608.724915
28.52 600.938049
28.53 593.742126
28.54 598.521423
28.55 601.912415
28.56 603.363464
28.57 601.297058
28.58 594.881897
28.59 592.120605
28.60 590.717163
28.61 591.535889
28.62 586.619751
28.63 580.948975
28.64 590.252441
28.65 596.584778
28.66 594.896484
28.67 598.258667
28.68 594.850464
28.69 591.985535
28.70 602.356323
28.71 606.061584
28.72 597.059937
28.73 596.888611
28.74 596.75708
28.75 592.533936
28.76 588.018005
28.77 587.208069
28.78 583.908386
28.79 581.925537
28.80 589.774719
28.81 592.864685
28.82 582.991699
28.83 577.344971
28.84 586.837463
28.85 598.165222
28.86 603.665527
28.87 604.075317
28.88 601.915894
28.89 596.319763
28.90 598.499695
28.91 602.660278
28.92 595.12854
28.93 591.064026
28.94 599.440491
28.95 598.977417
28.96 601.431152
28.97 607.190613
28.98 603.634155
28.99 601.968628
29.00 597.896057
29.01 595.399048
29.02 596.753235
29.03 596.026123
29.04 593.883667
29.05 593.368042
29.06 593.3797
29.07 602.373169
29.08 609.472595
29.09 610.353088
29.10 604.733093
29.11 607.401733
29.12 604.39447
29.13 593.674377
29.14 594.536499
29.15 594.841614
29.16 592.506714
29.17 591.390503
29.18 595.239502
29.19 598.467896
29.20 600.167908
29.21 599.040039
29.22 595.013062
29.23 598.601318
29.24 608.834534
29.25 602.752197
29.26 599.515503
29.27 603.673279
29.28 596.399414
29.29 588.309082
29.30 585.671936
29.31 585.86792
29.32 588.000305
29.33 590.663513
29.34 587.9646
29.35 582.996216
29.36 572.526062
29.37 564.655579
29.38 570.732422
29.39 590.743835
29.40 594.264771
29.41 594.96814
29.42 600.275696
29.43 601.648743
29.44 605.424683
29.45 604.758545
29.46 598.9375
29.47 587.442444
29.48 587.132568
29.49 592.461426
29.50 592.743774
29.51 592.744202
29.52 592.582764
29.53 590.134583
29.54 591.275879
29.55 591.474243
29.56 586.177795
29.57 586.317505
29.58 591.19751
29.59 591.020386
29.60 591.985229
29.61 596.738281
29.62 595.640198
29.63 589.396118
29.64 584.54303
29.65 586.65979
29.66 593.640076
29.67 596.101624
29.68 592.627136
29.69 592.702087
29.70 592.496765
29.71 591.340332
29.72 585.522766
29.73 581.326172
29.74 585.748962
29.75 586.75885
29.76 586.992615
29.77 590.729675
29.78 593.189209
29.79 589.841675
29.80 594.830505
29.81 605.072571
29.82 599.227051
29.83 588.241577
29.84 585.091064
29.85 594.478271
29.86 592.549316
29.87 586.941345
29.88 579.607422
29.89 575.189453
29.90 582.322754
29.91 584.528015
29.92 583.591675
29.93 584.005798
29.94 587.217468
29.95 584.983765
29.96 576.357239
29.97 574.398499
29.98 583.730652
29.99 580.842041
30.00 576.572937
30.01 576.387146
30.02 572.009338
30.03 573.590271
30.04 575.626099
30.05 579.292175
30.06 581.60199
30.07 589.175293
30.08 594.114014
30.09 590.804871
30.10 588.006104
30.11 592.697266
30.12 596.897888
30.13 588.849365
30.14 583.678284
30.15 585.896729
30.16 585.943726
30.17 586.959045
30.18 590.833435
30.19 591.402771
30.20 594.525757
30.21 599.56488
30.22 602.53949
30.23 607.823425
30.24 603.086792
30.25 597.787598
30.26 590.48407
30.27 592.599365
30.28 599.347534
30.29 603.286743
30.30 604.196289
30.31 600.607483
30.32 597.158508
30.33 593.918518
30.34 593.872742
30.35 598.116333
30.36 600.43634
30.37 599.693237
30.38 601.018372
30.39 593.560486
30.40 585.358032
30.41 588.308594
30.42 590.472656
30.43 588.132324
30.44 585.347351
30.45 588.764404
30.46 590.013123
30.47 594.117981
30.48 601.653931
30.49 599.069092
30.50 592.134277
30.51 589.433594
30.52 597.190002
30.53 609.013123
30.54 608.950745
30.55 600.463806
30.56 599.356567
30.57 598.752197
30.58 592.885559
30.59 588.753235
30.60 586.753113
30.61 594.788818
30.62 598.998657
30.63 599.379456
30.64 592.404114
30.65 595.23999
30.66 596.655823
30.67 596.584717
30.68 602.48175
30.69 603.619385
30.70 602.96167
30.71 603.219971
30.72 599.533264
30.73 591.984192
30.74 592.604309
30.75 596.572754
30.76 595.345459
30.77 596.705811
30.78 598.329041
30.79 589.463013
30.80 592.034851
30.81 597.68927
30.82 604.989014
30.83 602.242004
30.84 598.074768
30.85 595.85437
30.86 599.009155
30.87 605.447693
30.88 608.0354
30.89 603.166321
30.90 602.06488
30.91 608.182434
30.92 615.906128
30.93 621.108276
30.94 620.956726
30.95 618.309021
30.96 610.369141
30.97 615.549011
30.98 619.419067
30.99 626.105896
31.00 635.667297
31.01 639.088013
31.02 640.590149
31.03 640.183411
31.04 636.783936
31.05 639.558716
31.06 642.354675
31.07 647.888916
31.08 653.321533
31.09 661.557617
31.10 668.603577
31.11 673.513428
31.12 677.766479
31.13 678.209351
31.14 686.390076
31.15 699.78717
31.16 703.575745
31.17 712.890442
31.18 714.575378
31.19 718.902954
31.20 728.761169
31.21 744.919556
31.22 757.763184
31.23 759.035645
31.24 759.94043
31.25 766.580566
31.26 765.313293
31.27 763.169189
31.28 763.349976
31.29 763.186279
31.30 761.726013
31.31 760.785522
31.32 754.187195
31.33 741.629028
31.34 738.938232
31.35 730.758057
31.36 730.365906
31.37 728.141113
31.38 726.275269
31.39 713.392944
31.40 694.437012
31.41 685.739502
31.42 684.502319
31.43 679.240295
31.44 667.409851
31.45 661.126892
31.46 651.820862
31.47 646.071899
31.48 641.091248
31.49 630.971985
31.50 627.81189
31.51 624.924988
31.52 617.251587
31.53 616.280701
31.54 613.359436
31.55 603.292542
31.56 607.393616
31.57 598.642151
31.58 584.079834
31.59 576.604553
31.60 573.075989
31.61 575.207581
31.62 581.198792
31.63 578.99292
31.64 572.204102
31.65 566.826904
31.66 562.14563
31.67 559.03656
31.68 566.260254
31.69 570.293762
31.70 565.735657
31.71 566.683777
31.72 567.575134
31.73 566.225769
31.74 566.037048
31.75 562.644409
31.76 560.411133
31.77 558.42865
31.78 563.099182
31.79 572.906677
31.80 570.062988
31.81 565.53479
31.82 567.127991
31.83 567.710571
31.84 561.56311
31.85 557.114075
31.86 556.203064
31.87 552.861328
31.88 548.266113
31.89 545.407959
31.90 551.072876
31.91 555.199585
31.92 554.352417
31.93 547.456299
31.94 541.977966
31.95 537.400208
31.96 538.578247
31.97 548.629028
31.98 555.344971
31.99 549.675598
32.00 548.615417
32.01 550.676086
32.02 544.291443
32.03 546.265564
32.04 543.611938
32.05 542.740601
32.06 543.961792
32.07 542.421265
32.08 547.27417
32.09 547.556946
32.10 544.281372
32.11 544.901306
32.12 540.767517
32.13 538.751221
32.14 541.367249
32.15 541.88623
32.16 544.667725
32.17 543.389648
32.18 538.305603
32.19 540.026855
32.20 546.997009
32.21 543.938416
32.22 540.386108
32.23 534.704285
32.24 528.267212
32.25 525.194824
32.26 529.719666
32.27 534.507385
32.28 532.69873
32.29 536.144653
32.30 539.382324
32.31 534.618225
32.32 532.934998
32.33 531.927063
32.34 525.040894
32.35 520.767273
32.36 523.321472
32.37 526.99585
32.38 524.644653
32.39 528.849182
32.40 536.077087
32.41 535.520874
32.42 533.309082
32.43 534.217651
32.44 529.957092
32.45 522.93396
32.46 525.787964
32.47 530.666077
32.48 531.980103
32.49 535.475586
32.50 537.900818
32.51 536.340576
32.52 522.711731
32.53 517.370972
32.54 518.019958
32.55 518.72876
32.56 528.536621
32.57 527.529236
32.58 520.296387
32.59 524.016113
32.60 524.681641
32.61 524.989624
32.62 523.237
32.63 516.642395
32.64 516.112854
32.65 522.519775
32.66 521.12085
32.67 527.503418
32.68 532.324402
32.69 529.327576
32.70 524.238403
32.71 520.148682
32.72 522.269348
32.73 525.615723
32.74 531.368469
32.75 532.764282
32.76 527.605469
32.77 527.657349
32.78 528.033997
32.79 524.931824
32.80 523.737915
32.81 522.709351
32.82 518.115356
32.83 522.651489
32.84 522.279419
32.85 516.47467
32.86 514.825439
32.87 517.172668
32.88 523.1297
32.89 524.767334
32.90 524.97998
32.91 522.01709
32.92 520.895386
32.93 517.594971
32.94 514.138794
32.95 513.816406
32.96 513.385559
32.97 508.339264
32.98 506.572174
32.99 503.237152
33.00 499.668793
33.01 502.320313
33.02 503.498962
33.03 500.848602
33.04 504.04245
33.05 510.946777
33.06 516.382263
33.07 516.214539
33.08 512.243835
33.09 511.333984
33.10 508.938751
33.11 510.379852
33.12 512.201782
33.13 507.702179
33.14 509.48233
33.15 509.887848
33.16 503.731598
33.17 500.934265
33.18 502.09494
33.19 504.116852
33.20 502.083527
33.21 506.285919
33.22 516.257813
33.23 517.129089
33.24 509.523468
33.25 497.166687
33.26 499.87912
33.27 510.962494
33.28 508.84079
33.29 510.278534
33.30 509.481415
33.31 503.099823
33.32 508.092804
33.33 506.915649
33.34 502.362091
33.35 502.668518
33.36 495.574097
33.37 491.322327
33.38 495.7901
33.39 499.677887
33.40 496.761597
33.41 497.561737
33.42 496.274841
33.43 492.660095
33.44 489.365723
33.45 492.742584
33.46 493.449493
33.47 489.6521
33.48 487.219788
33.49 488.022369
33.50 488.486145
33.51 491.178802
33.52 492.19101
33.53 488.059113
33.54 485.516907
33.55 488.194824
33.56 493.145996
33.57 494.697601
33.58 489.58844
33.59 495.100189
33.60 495.765778
33.61 491.264282
33.62 489.982513
33.63 490.933655
33.64 489.365204
33.65 494.211395
33.66 494.432465
33.67 486.9198
33.68 479.940491
33.69 480.812347
33.70 481.76062
33.71 481.861084
33.72 482.886353
33.73 488.713043
33.74 490.683624
33.75 489.613953
33.76 490.875
33.77 487.337036
33.78 488.752197
33.79 493.406433
33.80 498.646759
33.81 499.673065
33.82 495.021301
33.83 490.008514
33.84 484.735046
33.85 480.095825
33.86 482.29425
33.87 487.787354
33.88 490.96817
33.89 489.537872
33.90 488.322479
33.91 487.226807
33.92 487.796387
33.93 484.947968
33.94 480.169189
33.95 481.518433
33.96 484.916046
33.97 481.267639
33.98 479.78656
33.99 482.285309
34.00 479.727264
34.01 481.892029
34.02 481.867493
34.03 476.450256
34.04 475.053528
34.05 483.060669
34.06 484.726044
34.07 482.360931
34.08 482.708099
34.09 477.668457
34.10 476.624756
34.11 476.623657
34.12 482.578247
34.13 484.823517
34.14 480.469604
34.15 482.400024
34.16 482.964783
34.17 478.879272
34.18 480.054565
34.19 475.001434
34.20 469.359924
34.21 466.627167
34.22 467.349274
34.23 471.220215
34.24 478.302094
34.25 478.18277
34.26 473.098938
34.27 475.8414
34.28 480.039337
34.29 478.05423
34.30 474.551422
34.31 473.351624
34.32 472.795776
34.33 473.864594
34.34 474.393616
34.35 472.624756
34.36 474.400421
34.37 481.079254
34.38 479.57605
34.39 474.471191
34.40 472.101868
34.41 472.392883
34.42 476.918121
34.43 474.305634
34.44 466.820618
34.45 466.050323
34.46 465.600555
34.47 464.376221
34.48 462.486359
34.49 464.706696
34.50 464.78537
34.51 462.621399
34.52 466.168854
34.53 474.262085
34.54 472.831238
34.55 475.089172
34.56 481.06723
34.57 481.408295
34.58 484.667175
34.59 480.79071
34.60 477.316589
34.61 477.315399
34.62 480.147552
34.63 479.298096
34.64 481.955902
34.65 481.624023
34.66 479.566528
34.67 478.219391
34.68 478.831879
34.69 477.293335
34.70 477.891632
34.71 480.648834
34.72 480.381989
34.73 485.053009
34.74 488.233093
34.75 491.4552
34.76 495.729828
34.77 494.117859
34.78 490.773438
34.79 489.355072
34.80 492.173584
34.81 499.499603
34.82 503.882507
34.83 500.974457
34.84 495.638947
34.85 497.525879
34.86 503.401489
34.87 503.955017
34.88 502.411957
34.89 503.143707
34.90 506.170349
34.91 504.890472
34.92 507.207062
34.93 507.445801
34.94 505.680389
34.95 506.628845
34.96 508.194916
34.97 505.328491
34.98 497.755676
34.99 501.231567
35.00 503.289673
35.01 498.307343
35.02 501.960754
35.03 504.329865
35.04 505.819061
35.05 511.505096
35.06 511.934387
35.07 512.308289
35.08 511.160034
35.09 502.637695
35.10 501.653748
35.11 506.03183
35.12 506.075562
35.13 501.763275
35.14 496.888794
35.15 491.07309
35.16 489.587616
35.17 501.989105
35.18 508.97168
35.19 511.419983
35.20 509.162567
35.21 498.426361
35.22 493.683746
35.23 494.148315
35.24 495.877411
35.25 495.763458
35.26 494.604645
35.27 492.744629
35.28 483.821594
35.29 481.132843
35.30 479.354492
35.31 480.585815
35.32 481.560272
35.33 472.066864
35.34 469.251862
35.35 472.609375
35.36 473.622803
35.37 477.562042
35.38 477.953522
35.39 468.29425
35.40 469.307129
35.41 470.208527
35.42 467.55957
35.43 459.890259
35.44 454.516968
35.45 455.713623
35.46 453.949249
35.47 451.203369
35.48 451.002258
35.49 446.869781
35.50 444.725464
35.51 448.767578
35.52 449.246918
35.53 446.877747
35.54 449.125916
35.55 449.157013
35.56 452.515961
35.57 458.290039
35.58 449.195465
35.59 433.021637
35.60 426.527802
35.61 426.005005
35.62 428.389618
35.63 432.771942
35.64 435.26709
35.65 433.938599
35.66 435.327515
35.67 439.418427
35.68 436.306976
35.69 427.091461
35.70 416.901184
35.71 417.118774
35.72 418.846527
35.73 420.174255
35.74 423.867493
35.75 426.395721
35.76 431.224182
35.77 433.743927
35.78 432.289398
35.79 427.795471
35.80 425.983582
35.81 426.363098
35.82 423.085052
35.83 420.178894
35.84 421.830322
35.85 419.509552
35.86 414.202209
35.87 409.066315
35.88 410.61853
35.89 415.589905
35.90 420.106506
35.91 420.951263
35.92 417.114685
35.93 418.319305
35.94 418.52359
35.95 419.31897
35.96 421.35498
35.97 416.254852
35.98 410.869812
35.99 408.853729
36.00 410.012115
36.01 411.462952
36.02 410.227661
36.03 405.7565
36.04 402.053833
36.05 404.520081
36.06 406.194641
36.07 404.488281
36.08 405.653595
36.09 408.43634
36.10 407.023956
36.11 405.19632
36.12 406.075684
36.13 406.904541
36.14 404.720032
36.15 398.31781
36.16 397.397339
36.17 401.213196
36.18 402.183197
36.19 401.111816
36.20 398.685272
36.21 398.02832
36.22 402.95459
36.23 402.092529
36.24 401.132568
36.25 402.373688
36.26 401.286865
36.27 398.273224
36.28 396.27417
36.29 397.61499
36.30 399.309143
36.31 396.837616
36.32 394.356598
36.33 401.126404
36.34 404.946045
36.35 397.221405
36.36 392.365021
36.37 390.300385
36.38 393.227478
36.39 405.229645
36.40 409.22403
36.41 408.877625
36.42 410.683807
36.43 405.580963
36.44 399.453156
36.45 401.047699
36.46 402.13031
36.47 399.283203
36.48 393.722412
36.49 390.016846
36.50 391.049561
36.51 392.460663
36.52 394.870758
36.53 396.286224
36.54 394.246094
36.55 392.678558
36.56 394.259857
36.57 396.160583
36.58 397.149048
36.59 400.610962
36.60 398.552948
36.61 399.417084
36.62 403.128571
36.63 395.235443
36.64 390.434296
36.65 388.456512
36.66 388.472748
36.67 390.484344
36.68 389.368622
36.69 392.243286
36.70 395.725769
36.71 395.498352
36.72 392.586609
36.73 383.175323
36.74 378.588196
36.75 382.001404
36.76 381.286346
36.77 377.928833
36.78 378.509369
36.79 385.01709
36.80 392.181061
36.81 392.160492
36.82 391.038239
36.83 388.798492
36.84 391.772491
36.85 396.113831
36.86 393.694183
36.87 390.155579
36.88 390.120972
36.89 392.697571
36.90 390.630615
36.91 384.911957
36.92 381.981201
36.93 382.66684
36.94 385.637115
36.95 386.600037
36.96 386.019257
36.97 384.390106
36.98 375.89566
36.99 369.168732
37.00 372.968628
37.01 373.290253
37.02 376.482788
37.03 382.256531
37.04 386.15097
37.05 383.86084
37.06 384.143372
37.07 382.237427
37.08 374.595459
37.09 372.958527
37.10 372.69928
37.11 367.617096
37.12 366.062836
37.13 373.215057
37.14 378.308746
37.15 375.83902
37.16 374.500244
37.17 377.609924
37.18 374.930389
37.19 371.69455
37.20 378.242523
37.21 378.079498
37.22 373.006104
37.23 369.999268
37.24 371.215454
37.25 373.951782
37.26 373.953247
37.27 378.245087
37.28 379.008881
37.29 375.292267
37.30 373.729767
37.31 376.896454
37.32 380.063965
37.33 376.78125
37.34 376.391357
37.35 376.756683
37.36 377.345276
37.37 374.9151
37.38 371.031525
37.39 371.832947
37.40 372.825348
37.41 371.478485
37.42 365.514893
37.43 361.95639
37.44 361.311066
37.45 366.542633
37.46 373.356018
37.47 375.819305
37.48 369.221558
37.49 368.470154
37.50 374.679413
37.51 374.253204
37.52 373.993225
37.53 369.78952
37.54 369.025818
37.55 368.019073
37.56 371.677979
37.57 375.734558
37.58 371.48999
37.59 367.177032
37.60 366.293915
37.61 365.970703
37.62 367.409546
37.63 371.28717
37.64 373.498505
37.65 370.026306
37.66 368.057739
37.67 367.100067
37.68 365.067474
37.69 361.931671
37.70 360.740784
37.71 359.811432
37.72 358.326874
37.73 360.180115
37.74 368.888062
37.75 372.134583
37.76 368.837311
37.77 368.36908
37.78 366.615448
37.79 362.113312
37.80 364.926147
37.81 365.961304
37.82 361.801117
37.83 365.739685
37.84 366.496582
37.85 366.693848
37.86 372.509766
37.87 373.092133
37.88 370.036987
37.89 371.382935
37.90 369.227997
37.91 361.617279
37.92 361.922333
37.93 362.243805
37.94 362.81488
37.95 361.534698
37.96 358.608582
37.97 360.089844
37.98 366.774109
37.99 365.398315
38.00 357.343628
38.01 359.71582
38.02 361.769775
38.03 364.11853
38.04 363.376709
38.05 359.399292
38.06 356.400818
38.07 347.325836
38.08 345.939758
38.09 352.243652
38.10 355.867767
38.11 363.821533
38.12 367.315155
38.13 361.76709
38.14 358.678101
38.15 361.859344
38.16 364.309937
38.17 360.947083
38.18 357.646698
38.19 355.286926
38.20 354.243652
38.21 357.97403
38.22 358.933167
38.23 356.970917
38.24 357.781006
38.25 358.682526
38.26 356.680206
38.27 357.283264
38.28 359.164093
38.29 355.341431
38.30 352.737305
38.31 353.955231
38.32 355.614838
38.33 363.117096
38.34 367.091827
38.35 363.82016
38.36 364.589355
38.37 362.948242
38.38 361.48056
38.39 364.721252
38.40 361.218475
38.41 357.528595
38.42 355.445831
38.43 354.408539
38.44 354.137787
38.45 358.281189
38.46 360.952026
38.47 356.117157
38.48 354.298492
38.49 354.910583
38.50 362.35733
38.51 368.440643
38.52 370.927582
38.53 371.373566
38.54 365.73584
38.55 363.80484
38.56 363.109772
38.57 358.115845
38.58 356.460693
38.59 359.816315
38.60 357.40332
38.61 353.42514
38.62 358.314087
38.63 366.678558
38.64 366.165466
38.65 361.80249
38.66 358.092285
38.67 354.107727
38.68 356.993683
38.69 360.636261
38.70 352.216125
38.71 349.31488
38.72 348.166687
38.73 349.322327
38.74 349.128357
38.75 348.079681
38.76 350.368347
38.77 352.29834
38.78 352.856842
38.79 356.570129
38.80 358.983398
38.81 358.669281
38.82 357.736908
38.83 356.687592
38.84 352.426758
38.85 349.339142
38.86 351.860626
38.87 356.627838
38.88 354.734528
38.89 351.112946
38.90 350.539856
38.91 350.565369
38.92 349.014832
38.93 348.37265
38.94 351.760956
38.95 348.306732
38.96 344.887878
38.97 342.96402
38.98 340.946075
38.99 345.425507
39.00 349.653076
39.01 345.867371
39.02 341.729523
39.03 342.080933
39.04 346.976501
39.05 351.450836
39.06 348.286255
39.07 342.790619
39.08 347.624573
39.09 354.091583
39.10 353.208801
39.11 349.575806
39.12 346.51239
39.13 339.254822
39.14 337.037598
39.15 334.848572
39.16 331.213776
39.17 336.241547
39.18 336.095154
39.19 336.417206
39.20 346.945557
39.21 348.346558
39.22 347.848389
39.23 351.97879
39.24 351.349121
39.25 349.720764
39.26 349.752563
39.27 351.188965
39.28 347.830383
39.29 346.300842
39.30 345.216553
39.31 346.767059
39.32 347.876495
39.33 343.960968
39.34 342.821045
39.35 343.258942
39.36 338.662231
39.37 332.575317
39.38 335.857849
39.39 345.599548
39.40 347.281067
39.41 344.02948
39.42 343.130859
39.43 340.956696
39.44 343.081085
39.45 345.428345
39.46 346.885315
39.47 342.330688
39.48 337.521332
39.49 334.51358
39.50 333.396301
39.51 334.929474
39.52 335.15686
39.53 338.992889
39.54 345.445007
39.55 347.392029
39.56 348.49115
39.57 347.535156
39.58 344.319305
39.59 340.867737
39.60 336.068542
39.61 337.589355
39.62 341.828918
39.63 338.762299
39.64 339.531891
39.65 340.615997
39.66 340.106537
39.67 339.483215
39.68 338.265778
39.69 340.320435
39.70 338.468628
39.71 333.443542
39.72 332.343872
39.73 332.267487
39.74 331.659119
39.75 333.059784
39.76 337.667206
39.77 340.526581
39.78 344.006042
39.79 340.699371
39.80 336.633636
39.81 334.791382
39.82 335.862274
39.83 339.958405
39.84 338.311707
39.85 337.280518
39.86 336.442841
39.87 341.222687
39.88 341.592102
39.89 338.338745
39.90 340.42334
39.91 339.568848
39.92 337.828552
39.93 336.882507
39.94 332.503815
39.95 327.99527
39.96 328.720123
39.97 328.506256
39.98 329.117249
39.99 333.644409
40.00 336.507813
40.01 337.402405
40.02 343.656006
40.03 341.416016
40.04 334.988495
40.05 334.687714
40.06 332.496216
40.07 327.919189
40.08 326.568054
40.09 327.803314
40.10 331.304474
40.11 336.808563
40.12 331.29187
40.13 326.561981
40.14 331.849304
40.15 333.094635
40.16 336.135529
40.17 339.606506
40.18 338.479431
40.19 334.624634
40.20 333.299774
40.21 332.949158
40.22 331.605988
40.23 330.034851
40.24 327.39032
40.25 330.366455
40.26 329.448883
40.27 328.738892
40.28 331.646606
40.29 331.498016
40.30 331.457062
40.31 332.08139
40.32 334.095856
40.33 332.917725
40.34 331.093109
40.35 333.18161
40.36 333.411041
40.37 332.090576
40.38 334.479065
40.39 334.317963
40.40 331.367065
40.41 336.1651
40.42 337.855316
40.43 336.269287
40.44 337.753815
40.45 336.981506
40.46 335.92395
40.47 332.264404
40.48 328.219482
40.49 327.63147
40.50 331.381073
40.51 329.588928
40.52 332.80542
40.53 337.048492
40.54 336.478638
40.55 340.582245
40.56 339.812256
40.57 336.39682
40.58 332.113953
40.59 332.624664
40.60 331.234619
40.61 329.868683
40.62 331.098206
40.63 326.366058
40.64 320.900665
40.65 323.45993
40.66 330.497711
40.67 331.352966
40.68 326.725555
40.69 329.873505
40.70 335.77597
40.71 334.493317
40.72 331.821716
40.73 330.511871
40.74 333.900269
40.75 335.294678
40.76 333.339569
40.77 330.916901
40.78 332.141693
40.79 332.996521
40.80 329.365265
40.81 329.552185
40.82 328.969513
40.83 332.436279
40.84 334.928772
40.85 334.645477
40.86 336.112518
40.87 334.244019
40.88 333.423462
40.89 331.062683
40.90 327.900513
40.91 331.660126
40.92 333.212433
40.93 333.150635
40.94 332.073608
40.95 328.03772
40.96 320.901978
40.97 323.009186
40.98 326.50885
40.99 323.447205
41.00 326.094116
41.01 327.099091
41.02 324.883087
41.03 326.259766
41.04 326.954895
41.05 327.237274
41.06 327.726288
41.07 326.36734
41.08 328.152313
41.09 330.634369
41.10 329.674988
