!@!!GADDS PLOTSO FILE: Chi integration type
!@!!Title/SampleName: ML_MAPbX3_chem5
!@!!User: NREL
!@!!Site: NREL SERF C211; SN 2510
!@!!Frame: 081022_MLProject_000_008.gfrm
!@!!Wavelengths    1.54184   1.54056   1.54439
!@!!Frame angles: 2Theta: 28.000 Omega: 5.000 Phi: 0.000 Chi: 90.000
!@!!Integration range: 2Theta: 10.000 to 40.000  Gamma: -100.000 to -80.000
!@!!Integration method: bin normalized
!@!N
!@!SS
!@!M
!@!L 0.0 0.0 0.0 0.0
!@!XDegrees
!@!YCounts
10.00 249.693359
10.02 245.920013
10.04 246.757553
10.06 245.329453
10.08 237.768341
10.10 240.616409
10.12 238.189529
10.14 239.899811
10.16 258.996399
10.18 256.687469
10.20 255.890305
10.22 241.225677
10.24 242.697266
10.26 245.014938
10.28 237.544815
10.30 242.255676
10.32 259.653961
10.34 277.593964
10.36 248.696609
10.38 242.237976
10.40 248.859634
10.42 257.193481
10.44 274.047485
10.46 253.477982
10.48 251.349701
10.50 253.379028
10.52 239.878403
10.54 255.413025
10.56 277.025391
10.58 265.01239
10.60 261.828247
10.62 271.001953
10.64 278.931671
10.66 249.499847
10.68 239.283005
10.70 248.191299
10.72 246.150497
10.74 275.03653
10.76 261.189148
10.78 245.042419
10.80 249.357819
10.82 238.322601
10.84 252.89798
10.86 273.217255
10.88 292.126312
10.90 265.500427
10.92 279.689606
10.94 271.06543
10.96 280.626404
10.98 268.383606
11.00 256.58313
11.02 260.090942
11.04 264.710724
11.06 256.37973
11.08 268.260803
11.10 272.42627
11.12 258.385406
11.14 243.659073
11.16 262.392517
11.18 253.797729
11.20 252.692184
11.22 266.47522
11.24 259.043243
11.26 252.903656
11.28 277.857849
11.30 272.478729
11.32 277.734009
11.34 266.928497
11.36 274.049561
11.38 258.775452
11.40 258.001556
11.42 256.5224
11.44 259.392456
11.46 279.788208
11.48 284.072693
11.50 281.396484
11.52 260.650116
11.54 281.947876
11.56 284.235077
11.58 281.460419
11.60 284.465088
11.62 289.036163
11.64 305.062988
11.66 294.25943
11.68 295.261505
11.70 277.139038
11.72 289.011108
11.74 313.221039
11.76 293.897278
11.78 285.070007
11.80 317.09729
11.82 308.947296
11.84 307.126007
11.86 302.870758
11.88 312.189209
11.90 294.477936
11.92 339.541931
11.94 338.372223
11.96 313.73175
11.98 328.52121
12.00 350.154724
12.02 347.335022
12.04 338.213623
12.06 364.695831
12.08 361.472504
12.10 374.493164
12.12 408.808014
12.14 419.411926
12.16 430.28476
12.18 436.694946
12.20 451.491119
12.22 439.779572
12.24 428.757721
12.26 456.226074
12.28 482.29068
12.30 478.241516
12.32 502.808777
12.34 533.154846
12.36 549.628052
12.38 560.780273
12.40 576.400696
12.42 588.00647
12.44 607.613953
12.46 640.710693
12.48 660.891663
12.50 683.975891
12.52 682.16394
12.54 670.598267
12.56 692.27063
12.58 703.290649
12.60 700.215454
12.62 705.277466
12.64 677.627319
12.66 641.338684
12.68 629.291443
12.70 611.127808
12.72 586.089661
12.74 561.236633
12.76 531.209595
12.78 511.569427
12.80 481.220093
12.82 462.364563
12.84 468.476166
12.86 431.090973
12.88 428.794373
12.90 419.141663
12.92 401.914856
12.94 378.968201
12.96 370.896729
12.98 371.218994
13.00 372.952576
13.02 384.84903
13.04 342.009857
13.06 339.069183
13.08 346.919586
13.10 345.961548
13.12 344.035461
13.14 327.500244
13.16 316.864441
13.18 337.477203
13.20 348.293976
13.22 321.513397
13.24 318.493286
13.26 336.00351
13.28 341.900391
13.30 340.045837
13.32 340.50061
13.34 346.653229
13.36 354.503662
13.38 363.494385
13.40 358.706696
13.42 332.075684
13.44 355.673767
13.46 354.860138
13.48 337.370911
13.50 328.341888
13.52 348.236145
13.54 366.29187
13.56 364.149658
13.58 363.651764
13.60 370.193176
13.62 365.99469
13.64 382.775085
13.66 393.174561
13.68 416.593109
13.70 424.389801
13.72 427.694
13.74 454.806061
13.76 475.967499
13.78 455.339996
13.80 483.281342
13.82 520.01178
13.84 508.846313
13.86 547.693054
13.88 549.889771
13.90 564.011475
13.92 574.591675
13.94 600.557312
13.96 650.944336
13.98 698.523804
14.00 700.895386
14.02 727.36554
14.04 785.024536
14.06 855.074341
14.08 903.776001
14.10 954.837158
14.12 986.672363
14.14 1021.250549
14.16 1120.265015
14.18 1193.209229
14.20 1265.143555
14.22 1348.721924
14.24 1383.796387
14.26 1459.011963
14.28 1555.622925
14.30 1577.861084
14.32 1649.874268
14.34 1721.368896
14.36 1786.563232
14.38 1814.191406
14.40 1886.067139
14.42 1941.166626
14.44 1915.865723
14.46 1817.491089
14.48 1771.239746
14.50 1717.147095
14.52 1672.055176
14.54 1653.853638
14.56 1562.71582
14.58 1532.461792
14.60 1455.860596
14.62 1407.733521
14.64 1377.370361
14.66 1363.744995
14.68 1308.869141
14.70 1280.267578
14.72 1299.303955
14.74 1332.181519
14.76 1347.552856
14.78 1342.778564
14.80 1345.512085
14.82 1348.825928
14.84 1364.944336
14.86 1400.807739
14.88 1480.906738
14.90 1485.044678
14.92 1454.322632
14.94 1508.891235
14.96 1549.903809
14.98 1620.77356
15.00 1634.054199
15.02 1643.088135
15.04 1671.435547
15.06 1701.630493
15.08 1737.133301
15.10 1750.764282
15.12 1705.265991
15.14 1675.500244
15.16 1598.222534
15.18 1560.076782
15.20 1495.022827
15.22 1432.384399
15.24 1352.00647
15.26 1270.191528
15.28 1195.986328
15.30 1095.703735
15.32 1027.109619
15.34 935.232727
15.36 854.696838
15.38 795.760742
15.40 736.363586
15.42 695.452759
15.44 637.165466
15.46 589.629639
15.48 575.184692
15.50 533.979858
15.52 510.751556
15.54 506.043213
15.56 485.847412
15.58 456.151337
15.60 429.31369
15.62 433.377136
15.64 417.988373
15.66 401.428864
15.68 419.215576
15.70 413.384247
15.72 419.744965
15.74 404.199554
15.76 385.000244
15.78 391.032257
15.80 369.486877
15.82 381.154144
15.84 392.997925
15.86 386.100372
15.88 396.965942
15.90 358.354767
15.92 351.493378
15.94 377.430359
15.96 387.252319
15.98 384.609711
16.00 376.426544
16.02 365.534851
16.04 368.204834
16.06 367.84668
16.08 353.702271
16.10 349.940948
16.12 359.868073
16.14 381.400513
16.16 391.700775
16.18 374.976898
16.20 364.091644
16.22 351.324097
16.24 366.756683
16.26 371.111328
16.28 381.189667
16.30 364.495453
16.32 362.89093
16.34 366.22937
16.36 387.333496
16.38 364.947906
16.40 369.756561
16.42 380.001678
16.44 353.87381
16.46 347.947754
16.48 380.106293
16.50 350.997589
16.52 342.465057
16.54 355.993073
16.56 350.76239
16.58 362.100739
16.60 380.347473
16.62 381.471375
16.64 384.318573
16.66 377.426697
16.68 376.098297
16.70 386.63913
16.72 373.034637
16.74 382.194885
16.76 389.921539
16.78 382.478668
16.80 379.149567
16.82 377.456665
16.84 369.042877
16.86 363.622437
16.88 369.471527
16.90 377.640106
16.92 363.611725
16.94 379.962372
16.96 387.400055
16.98 375.610992
17.00 376.988831
17.02 362.665466
17.04 368.908325
17.06 354.302673
17.08 375.909088
17.10 369.489838
17.12 371.917847
17.14 373.931244
17.16 369.721436
17.18 365.345093
17.20 384.980682
17.22 384.860748
17.24 376.472626
17.26 380.185272
17.28 392.597412
17.30 381.580994
17.32 396.950195
17.34 364.938354
17.36 376.303925
17.38 380.866516
17.40 391.022644
17.42 408.470093
17.44 400.532776
17.46 386.591949
17.48 374.274933
17.50 374.454651
17.52 368.12439
17.54 363.783356
17.56 387.651062
17.58 391.254669
17.60 403.557648
17.62 412.484467
17.64 376.538757
17.66 388.527252
17.68 416.872894
17.70 400.077606
17.72 388.568542
17.74 391.597778
17.76 421.102814
17.78 406.14856
17.80 398.524384
17.82 390.139008
17.84 398.081543
17.86 412.522552
17.88 408.378906
17.90 410.934509
17.92 406.713165
17.94 409.401154
17.96 419.032288
17.98 406.44162
18.00 393.540741
18.02 422.962891
18.04 402.165802
18.06 408.590668
18.08 409.145935
18.10 409.751892
18.12 399.377716
18.14 402.417236
18.16 402.928284
18.18 410.983551
18.20 405.055054
18.22 392.727936
18.24 400.960297
18.26 421.253052
18.28 408.836029
18.30 434.945221
18.32 433.743317
18.34 426.027893
18.36 430.897736
18.38 416.550415
18.40 427.150909
18.42 419.119415
18.44 414.093384
18.46 422.407745
18.48 425.340637
18.50 428.107208
18.52 450.467041
18.54 441.970581
18.56 428.936554
18.58 425.567474
18.60 420.661804
18.62 435.228729
18.64 438.371307
18.66 430.71994
18.68 447.091156
18.70 450.528839
18.72 447.827728
18.74 445.591461
18.76 429.138947
18.78 418.961426
18.80 429.425018
18.82 446.646088
18.84 444.126343
18.86 432.953674
18.88 425.872498
18.90 446.197571
18.92 460.087341
18.94 453.557709
18.96 460.43634
18.98 456.610809
19.00 469.731018
19.02 443.535583
19.04 441.479156
19.06 468.774902
19.08 456.61676
19.10 444.604218
19.12 451.742584
19.14 459.51886
19.16 453.966248
19.18 443.654144
19.20 445.08905
19.22 446.871613
19.24 440.22049
19.26 473.130524
19.28 480.009064
19.30 475.071014
19.32 473.595917
19.34 466.259125
19.36 461.261047
19.38 474.229401
19.40 490.44162
19.42 486.312927
19.44 489.829895
19.46 464.333496
19.48 447.639008
19.50 464.157928
19.52 474.607025
19.54 487.528961
19.56 481.165863
19.58 479.247711
19.60 459.922455
19.62 461.604553
19.64 484.502808
19.66 471.580444
19.68 472.055847
19.70 475.377777
19.72 478.278656
19.74 479.629059
19.76 507.677246
19.78 495.423798
19.80 482.676941
19.82 463.91571
19.84 490.442383
19.86 497.588531
19.88 482.554718
19.90 492.543945
19.92 512.866699
19.94 504.59375
19.96 504.214966
19.98 500.300232
20.00 511.832916
20.02 515.019836
20.04 514.12085
20.06 512.9953
20.08 507.369934
20.10 511.077576
20.12 516.616028
20.14 524.71106
20.16 520.900574
20.18 496.308441
20.20 504.808899
20.22 520.246765
20.24 519.058594
20.26 519.308533
20.28 523.582703
20.30 527.840027
20.32 544.937988
20.34 530.935181
20.36 533.677979
20.38 535.874634
20.40 528.784546
20.42 534.067932
20.44 531.671082
20.46 533.585144
20.48 534.38562
20.50 538.71582
20.52 535.738953
20.54 544.631042
20.56 545.235962
20.58 543.792969
20.60 516.826843
20.62 521.840393
20.64 526.221741
20.66 537.034485
20.68 537.948303
20.70 552.324768
20.72 555.666443
20.74 550.600708
20.76 551.170288
20.78 553.493408
20.80 548.281921
20.82 543.376038
20.84 546.154724
20.86 540.549133
20.88 553.933472
20.90 575.680969
20.92 575.166382
20.94 573.453552
20.96 550.622742
20.98 565.682312
21.00 559.080994
21.02 562.655701
21.04 565.852661
21.06 570.160522
21.08 544.820923
21.10 558.597046
21.12 550.140564
21.14 560.222168
21.16 562.109924
21.18 557.939453
21.20 552.819458
21.22 551.628967
21.24 555.121399
21.26 564.183472
21.28 590.990723
21.30 579.394287
21.32 579.207275
21.34 586.055786
21.36 573.127441
21.38 576.02771
21.40 580.717163
21.42 589.913025
21.44 587.749329
21.46 584.126648
21.48 580.822815
21.50 573.882874
21.52 575.875244
21.54 588.408203
21.56 575.035034
21.58 594.647949
21.60 589.374451
21.62 590.78302
21.64 594.033203
21.66 586.750183
21.68 606.184875
21.70 609.282593
21.72 613.487427
21.74 597.714966
21.76 604.059692
21.78 598.281372
21.80 604.529175
21.82 599.718384
21.84 601.852539
21.86 584.77594
21.88 578.918274
21.90 581.86377
21.92 593.840942
21.94 590.807678
21.96 609.167419
21.98 603.165039
22.00 596.467346
22.02 612.18335
22.04 612.454712
22.06 600.279175
22.08 596.973206
22.10 609.258057
22.12 602.342896
22.14 591.121033
22.16 601.959412
22.18 608.473511
22.20 618.914551
22.22 610.546631
22.24 612.166138
22.26 616.205627
22.28 623.309265
22.30 615.260498
22.32 586.133606
22.34 588.03009
22.36 604.794067
22.38 611.173096
22.40 595.377502
22.42 606.019653
22.44 619.135437
22.46 617.684875
22.48 616.787598
22.50 610.612122
22.52 617.207947
22.54 627.459351
22.56 637.326904
22.58 630.803528
22.60 615.791687
22.62 619.95105
22.64 637.216614
22.66 634.787048
22.68 630.814453
22.70 631.551636
22.72 615.156494
22.74 614.831238
22.76 612.188416
22.78 636.062683
22.80 634.9776
22.82 633.018311
22.84 644.185852
22.86 639.144226
22.88 625.099304
22.90 634.85144
22.92 642.766357
22.94 643.144348
22.96 652.654968
22.98 644.602539
23.00 631.353638
23.02 649.240967
23.04 647.919617
23.06 626.302795
23.08 634.012146
23.10 648.446594
23.12 642.020508
23.14 641.309448
23.16 660.992859
23.18 655.573792
23.20 644.458557
23.22 664.732849
23.24 651.656738
23.26 642.838135
23.28 633.740601
23.30 637.271851
23.32 644.635193
23.34 649.66217
23.36 654.67865
23.38 653.308411
23.40 646.735107
23.42 650.344482
23.44 657.595459
23.46 671.654602
23.48 662.939819
23.50 651.910339
23.52 655.588501
23.54 646.268494
23.56 648.770142
23.58 656.778503
23.60 651.430664
23.62 647.668457
23.64 663.898071
23.66 669.964722
23.68 657.192749
23.70 652.972534
23.72 640.285889
23.74 631.83606
23.76 639.89093
23.78 633.492126
23.80 630.617371
23.82 636.061523
23.84 641.901245
23.86 638.110901
23.88 648.976257
23.90 639.766602
23.92 664.205627
23.94 663.846619
23.96 668.694824
23.98 650.526733
24.00 651.253052
24.02 662.154297
24.04 653.153748
24.06 656.610413
24.08 659.691589
24.10 662.292969
24.12 650.859741
24.14 646.163513
24.16 636.322937
24.18 630.425964
24.20 654.269531
24.22 650.536926
24.24 646.914246
24.26 659.824158
24.28 648.732788
24.30 640.729736
24.32 654.316223
24.34 670.151062
24.36 669.982361
24.38 658.48822
24.40 649.540833
24.42 650.939148
24.44 661.711853
24.46 659.81366
24.48 657.10144
24.50 663.105042
24.52 655.356689
24.54 663.475342
24.56 667.946289
24.58 665.53949
24.60 666.531799
24.62 656.494812
24.64 669.174011
24.66 674.798279
24.68 686.110657
24.70 658.48999
24.72 663.550232
24.74 665.833069
24.76 660.191223
24.78 658.888489
24.80 662.977356
24.82 668.572083
24.84 669.469482
24.86 659.036865
24.88 660.199463
24.90 641.250366
24.92 652.155518
24.94 655.490479
24.96 652.983154
24.98 662.386292
25.00 675.207581
25.02 671.94342
25.04 663.487793
25.06 672.732788
25.08 657.478027
25.10 669.238342
25.12 675.19165
25.14 660.260742
25.16 642.152954
25.18 654.073608
25.20 674.923157
25.22 698.394409
25.24 687.53363
25.26 670.163208
25.28 662.572205
25.30 664.729614
25.32 671.511108
25.34 698.609619
25.36 664.22644
25.38 662.562317
25.40 672.367859
25.42 671.214111
25.44 666.601318
25.46 643.38208
25.48 659.96698
25.50 678.289368
25.52 652.7901
25.54 683.33551
25.56 687.040833
25.58 680.315613
25.60 669.700134
25.62 646.367126
25.64 639.199829
25.66 664.047241
25.68 680.971619
25.70 704.886475
25.72 674.763367
25.74 670.13562
25.76 678.977356
25.78 673.099426
25.80 661.08606
25.82 664.571594
25.84 644.235107
25.86 676.436218
25.88 681.279419
25.90 673.155823
25.92 672.37262
25.94 675.564941
25.96 665.926758
25.98 679.285217
26.00 662.085266
26.02 670.665955
26.04 676.310364
26.06 660.63385
26.08 663.19281
26.10 657.993591
26.12 653.976746
26.14 667.099243
26.16 663.981995
26.18 652.526428
26.20 639.329102
26.22 656.20459
26.24 667.38147
26.26 672.511414
26.28 677.210815
26.30 648.825378
26.32 656.764221
26.34 654.636169
26.36 657.032471
26.38 670.049988
26.40 658.291321
26.42 661.20697
26.44 681.174744
26.46 652.37616
26.48 658.71344
26.50 644.41272
26.52 649.226868
26.54 667.829956
26.56 666.58252
26.58 657.611389
26.60 640.574097
26.62 654.616272
26.64 653.762085
26.66 652.181458
26.68 657.344666
26.70 664.243225
26.72 663.701233
26.74 665.207886
26.76 645.25708
26.78 648.552551
26.80 660.902405
26.82 643.962646
26.84 658.60553
26.86 648.926514
26.88 633.518311
26.90 637.339539
26.92 626.254272
26.94 637.701477
26.96 661.691467
26.98 640.663574
27.00 655.358276
27.02 665.169739
27.04 644.180115
27.06 654.707642
27.08 667.031494
27.10 655.593079
27.12 657.389954
27.14 673.458191
27.16 650.732727
27.18 651.88208
27.20 637.043274
27.22 645.394226
27.24 667.958618
27.26 671.981018
27.28 655.101685
27.30 636.364258
27.32 665.550842
27.34 669.432678
27.36 664.766785
27.38 649.010925
27.40 638.622131
27.42 644.475891
27.44 663.300171
27.46 652.489075
27.48 652.071472
27.50 655.299377
27.52 639.472534
27.54 640.947998
27.56 647.733643
27.58 661.001831
27.60 653.092285
27.62 657.614014
27.64 658.89209
27.66 661.341187
27.68 663.830872
27.70 662.010071
27.72 670.122498
27.74 658.199341
27.76 671.139282
27.78 662.933777
27.80 652.790344
27.82 639.437256
27.84 645.451904
27.86 650.819214
27.88 665.610779
27.90 666.828735
27.92 654.577637
27.94 647.113953
27.96 656.281921
27.98 660.858521
28.00 654.50647
28.02 663.67334
28.04 660.280396
28.06 651.351318
28.08 646.674988
28.10 650.834045
28.12 648.95636
28.14 660.894165
28.16 657.229187
28.18 643.040955
28.20 664.405334
28.22 640.320862
28.24 659.512329
28.26 650.849854
28.28 645.141785
28.30 647.081055
28.32 665.344482
28.34 684.687317
28.36 671.160706
28.38 665.008728
28.40 663.658752
28.42 665.497559
28.44 658.051453
28.46 692.153442
28.48 692.657227
28.50 692.676819
28.52 680.135803
28.54 686.25061
28.56 680.494568
28.58 713.105652
28.60 723.546814
28.62 725.168335
28.64 716.442017
28.66 728.153015
28.68 759.219849
28.70 774.171997
28.72 781.095215
28.74 803.157898
28.76 798.7099
28.78 822.681458
28.80 838.095337
28.82 855.771362
28.84 873.437866
28.86 891.368652
28.88 900.710083
28.90 945.037354
28.92 973.547668
28.94 969.035156
28.96 993.457764
28.98 997.304382
29.00 1017.009277
29.02 1029.404419
29.04 1023.891663
29.06 1041.981812
29.08 1014.6828
29.10 1017.547302
29.12 1003.43573
29.14 997.93634
29.16 1004.120117
29.18 993.555664
29.20 977.376099
29.22 954.471497
29.24 943.863708
29.26 923.155701
29.28 912.846741
29.30 902.94104
29.32 896.092468
29.34 889.953491
29.36 870.202576
29.38 848.841858
29.40 808.084534
29.42 809.762085
29.44 801.461365
29.46 833.378113
29.48 836.225586
29.50 824.52179
29.52 811.166626
29.54 803.505676
29.56 781.558838
29.58 769.159241
29.60 751.642639
29.62 752.793518
29.64 748.411682
29.66 746.915771
29.68 755.180542
29.70 753.409058
29.72 763.146118
29.74 751.636841
29.76 744.892639
29.78 728.942749
29.80 722.041382
29.82 741.605042
29.84 747.485962
29.86 723.335327
29.88 728.47821
29.90 728.132996
29.92 731.347351
29.94 737.081238
29.96 745.830994
29.98 747.1698
30.00 749.700928
30.02 743.687317
30.04 735.408936
30.06 725.416199
30.08 753.931213
30.10 777.172974
30.12 769.391296
30.14 755.434387
30.16 746.56543
30.18 750.935791
30.20 773.658997
30.22 789.29541
30.24 796.339111
30.26 798.962219
30.28 797.308777
30.30 790.93573
30.32 811.877441
30.34 845.812012
30.36 839.244263
30.38 853.582214
30.40 873.666077
30.42 883.403992
30.44 902.175415
30.46 924.736511
30.48 926.881165
30.50 931.35144
30.52 936.665161
30.54 947.17926
30.56 960.756042
30.58 940.586792
30.60 933.552734
30.62 923.174683
30.64 907.321411
30.66 876.431885
30.68 863.801025
30.70 865.385803
30.72 829.603027
30.74 787.728333
30.76 770.849915
30.78 771.066589
30.80 762.895203
30.82 754.149109
30.84 723.549927
30.86 727.321167
30.88 717.539917
30.90 695.114685
30.92 680.719543
30.94 667.974609
30.96 669.627319
30.98 652.310608
31.00 638.66687
31.02 657.545776
31.04 655.716064
31.06 653.582153
31.08 636.864807
31.10 631.18396
31.12 614.165649
31.14 618.909058
31.16 625.964233
31.18 607.653381
31.20 610.945374
31.22 613.091797
31.24 611.553345
31.26 615.608398
31.28 614.636475
31.30 603.350159
31.32 602.802734
31.34 608.478394
31.36 604.876465
31.38 611.466248
31.40 601.934204
31.42 620.967041
31.44 593.545776
31.46 567.182068
31.48 562.674438
31.50 585.775818
31.52 573.161865
31.54 578.820496
31.56 588.690125
31.58 594.077271
31.60 592.359131
31.62 584.430969
31.64 585.896545
31.66 582.582275
31.68 567.633362
31.70 586.866333
31.72 578.763184
31.74 575.457642
31.76 585.680542
31.78 583.359192
31.80 565.519531
31.82 590.195007
31.84 596.174072
31.86 587.298401
31.88 569.677734
31.90 583.404968
31.92 580.641907
31.94 574.901794
31.96 573.567993
31.98 579.125793
32.00 571.920166
32.02 577.221252
32.04 593.141602
32.06 577.045898
32.08 567.74231
32.10 573.289795
32.12 578.237427
32.14 593.771484
32.16 581.928772
32.18 580.65564
32.20 580.70166
32.22 581.133179
32.24 582.879517
32.26 586.922424
32.28 571.61322
32.30 566.835205
32.32 573.786987
32.34 583.033936
32.36 582.4151
32.38 585.386353
32.40 566.359436
32.42 562.483093
32.44 577.188843
32.46 577.832947
32.48 587.752747
32.50 582.245972
32.52 572.517883
32.54 557.622742
32.56 569.709839
32.58 563.508606
32.60 556.526001
32.62 566.489929
32.64 582.754883
32.66 589.410095
32.68 583.512878
32.70 582.324951
32.72 580.984253
32.74 575.969666
32.76 574.59137
32.78 571.764648
32.80 556.925354
32.82 540.344055
32.84 549.113464
32.86 562.37085
32.88 546.176514
32.90 562.751038
32.92 549.244812
32.94 534.355042
32.96 540.776672
32.98 528.298889
33.00 532.499817
33.02 533.244629
33.04 518.01416
33.06 531.342346
33.08 528.325623
33.10 543.348083
33.12 558.606628
33.14 559.599915
33.16 542.30603
33.18 536.09137
33.20 512.270325
33.22 529.902954
33.24 527.541809
33.26 532.124939
33.28 539.428711
33.30 545.976135
33.32 534.944641
33.34 536.07843
33.36 531.771484
33.38 514.974792
33.40 515.987183
33.42 519.497742
33.44 520.464355
33.46 505.778717
33.48 508.183502
33.50 528.999573
33.52 521.286804
33.54 510.308746
33.56 515.827576
33.58 513.00824
33.60 524.406921
33.62 522.738647
33.64 519.478027
33.66 504.252014
33.68 507.542145
33.70 509.259338
33.72 512.489685
33.74 497.935211
33.76 502.284698
33.78 505.909088
33.80 503.610413
33.82 506.988129
33.84 526.542786
33.86 506.673126
33.88 503.0383
33.90 493.952911
33.92 511.571289
33.94 510.890747
33.96 502.186401
33.98 508.875946
34.00 501.413696
34.02 488.514374
34.04 498.807587
34.06 517.456848
34.08 521.492249
34.10 504.93158
34.12 497.844421
34.14 504.226227
34.16 514.304626
34.18 506.779297
34.20 505.582642
34.22 494.246887
34.24 505.021637
34.26 493.940338
34.28 483.62973
34.30 488.591034
34.32 491.741913
34.34 504.134308
34.36 501.22229
34.38 495.907593
34.40 496.538605
34.42 495.852325
34.44 482.995605
34.46 473.221619
34.48 491.404633
34.50 483.01059
34.52 474.765442
34.54 466.327698
34.56 488.990753
34.58 483.092468
34.60 481.102325
34.62 479.248962
34.64 469.38858
34.66 471.401855
34.68 459.123657
34.70 455.986847
34.72 467.992249
34.74 467.405029
34.76 476.295258
34.78 474.969818
34.80 468.499939
34.82 472.380432
34.84 468.669464
34.86 456.396149
34.88 465.499359
34.90 466.859131
34.92 473.920166
34.94 474.499634
34.96 474.948303
34.98 460.517029
35.00 464.225342
35.02 462.368286
35.04 475.621063
35.06 473.227753
35.08 467.146729
35.10 468.383728
35.12 469.783112
35.14 458.5755
35.16 451.026367
35.18 447.726074
35.20 457.195282
35.22 459.94223
35.24 457.616852
35.26 453.131134
35.28 451.74823
35.30 458.495026
35.32 450.254974
35.34 453.431183
35.36 454.935822
35.38 440.32312
35.40 443.525299
35.42 447.023499
35.44 437.616425
35.46 442.214539
35.48 431.440155
35.50 441.765533
35.52 459.25946
35.54 461.805786
35.56 442.708466
35.58 440.167877
35.60 448.035553
35.62 442.365662
35.64 428.985443
35.66 442.05542
35.68 446.057037
35.70 438.209686
35.72 454.034973
35.74 459.982758
35.76 434.505707
35.78 443.44455
35.80 452.404877
35.82 443.769135
35.84 431.428223
35.86 422.538879
35.88 416.996155
35.90 417.052155
35.92 421.266968
35.94 443.810822
35.96 434.089813
35.98 442.045776
36.00 423.287994
36.02 436.469147
36.04 443.440918
36.06 436.42868
36.08 427.486267
36.10 425.309753
36.12 434.037872
36.14 432.518555
36.16 426.849182
36.18 419.086365
36.20 423.803467
36.22 406.554291
36.24 412.51413
36.26 406.245636
36.28 398.897614
36.30 406.774078
36.32 411.35199
36.34 405.757141
36.36 413.513489
36.38 406.026001
36.40 413.201996
36.42 421.816711
36.44 427.828613
36.46 412.69693
36.48 409.268372
36.50 404.21463
36.52 405.419678
36.54 412.829651
36.56 406.418396
36.58 407.165161
36.60 400.044464
36.62 402.792786
36.64 407.160309
36.66 410.208282
36.68 409.412598
36.70 399.312653
36.72 399.238495
36.74 405.237854
36.76 404.81488
36.78 408.412842
36.80 406.706299
36.82 405.530243
36.84 385.212433
36.86 384.481842
36.88 387.281616
36.90 389.378815
36.92 398.152435
36.94 403.412903
36.96 391.447235
36.98 389.630707
37.00 375.697601
37.02 389.940491
37.04 396.201508
37.06 413.076965
37.08 389.17337
37.10 387.598297
37.12 389.883575
37.14 386.94043
37.16 389.935974
37.18 392.086578
37.20 386.389008
37.22 393.647339
37.24 377.800171
37.26 388.072968
37.28 386.935059
37.30 391.483734
37.32 392.555878
37.34 390.250092
37.36 392.588989
37.38 382.920471
37.40 377.790253
37.42 386.741913
37.44 386.276367
37.46 370.897522
37.48 375.930481
37.50 379.229584
37.52 384.669617
37.54 392.603943
37.56 377.500092
37.58 369.596802
37.60 371.849609
37.62 359.384338
37.64 381.68576
37.66 392.287964
37.68 388.483398
37.70 379.736664
37.72 368.119171
37.74 378.057678
37.76 376.593872
37.78 380.209747
37.80 363.407959
37.82 371.453369
37.84 363.674835
37.86 373.331055
37.88 376.588715
37.90 362.007538
37.92 378.202728
37.94 367.638763
37.96 360.1138
37.98 365.483032
38.00 369.187561
38.02 378.2005
38.04 367.302948
38.06 369.11145
38.08 365.652191
38.10 358.855835
38.12 362.719055
38.14 369.394714
38.16 371.152252
38.18 371.29953
38.20 384.651917
38.22 372.994202
38.24 376.979279
38.26 372.559296
38.28 371.528015
38.30 359.024536
38.32 369.406219
38.34 372.923309
38.36 364.952332
38.38 357.021881
38.40 364.011353
38.42 379.367493
38.44 374.284698
38.46 381.675323
38.48 383.614807
38.50 380.528595
38.52 388.612
38.54 380.189819
38.56 398.951813
38.58 402.34317
38.60 370.902802
38.62 373.680878
38.64 370.051117
38.66 381.333618
38.68 378.942474
38.70 365.639404
38.72 370.023376
38.74 371.508911
38.76 378.184448
38.78 355.875916
38.80 358.408936
38.82 361.110565
38.84 366.93338
38.86 371.079224
38.88 365.908234
38.90 355.88858
38.92 359.013275
38.94 351.560181
38.96 355.522034
38.98 362.782623
39.00 351.018707
39.02 344.961609
39.04 354.157745
39.06 348.966614
39.08 348.199768
39.10 351.368683
39.12 351.549713
39.14 355.220215
39.16 350.87326
39.18 343.321899
39.20 351.370697
39.22 358.350525
39.24 363.226624
39.26 352.755005
39.28 362.240662
39.30 361.413818
39.32 355.250305
39.34 357.395233
39.36 365.766144
39.38 364.699371
39.40 360.768524
39.42 355.628937
39.44 343.852966
39.46 362.869507
39.48 372.072906
39.50 363.684967
39.52 366.808472
39.54 375.89563
39.56 361.992218
39.58 351.948639
39.60 348.325073
39.62 349.01062
39.64 344.893097
39.66 357.09433
39.68 345.930725
39.70 345.416229
39.72 349.370758
39.74 353.063599
39.76 349.958832
39.78 345.571991
39.80 348.192596
39.82 355.82019
39.84 351.843689
39.86 340.752441
39.88 342.991699
39.90 347.926208
39.92 346.082733
39.94 348.230652
39.96 346.124298
39.98 336.349609
40.00 329.607513
