!@!!GADDS PLOTSO FILE: Chi integration type
!@!!Title/SampleName: ML_MAPbX3_chem16_longer
!@!!User: NREL
!@!!Site: NREL SERF C211; SN 2510
!@!!Frame: C:\frames\rbelisle\MLProject\081922_ML_MAPbX3_chem16_long_000_001.gfrm
!@!!Wavelengths    1.54184   1.54056   1.54439
!@!!Frame angles: 2Theta: 28.000 Omega: 5.000 Phi: 0.000 Chi: 90.000
!@!!Integration range: 2Theta: 10.000 to 40.000  Gamma: -100.000 to -80.000
!@!!Integration method: bin normalized
!@!N
!@!SS
!@!M
!@!L 0.0 0.0 0.0 0.0
!@!XDegrees
!@!YCounts
10.00 529.828308
10.02 535.414856
10.04 550.525146
10.06 542.91687
10.08 511.010101
10.10 515.764832
10.12 518.234741
10.14 519.04303
10.16 501.565338
10.18 498.981049
10.20 505.263397
10.22 505.261536
10.24 530.865967
10.26 534.626648
10.28 544.647217
10.30 528.045715
10.32 536.733093
10.34 548.936523
10.36 535.517883
10.38 564.395935
10.40 552.279663
10.42 533.564026
10.44 514.963806
10.46 529.003296
10.48 536.62854
10.50 524.077698
10.52 520.929565
10.54 548.45459
10.56 539.007446
10.58 520.047485
10.60 550.705872
10.62 557.839722
10.64 559.405945
10.66 553.249756
10.68 558.59021
10.70 540.561584
10.72 537.364868
10.74 569.781494
10.76 547.460144
10.78 558.824646
10.80 578.058838
10.82 572.177856
10.84 576.16156
10.86 545.606323
10.88 533.545166
10.90 581.045349
10.92 572.228333
10.94 564.585022
10.96 596.981873
10.98 575.442688
11.00 549.290588
11.02 551.988098
11.04 567.386902
11.06 570.542725
11.08 548.180298
11.10 574.748718
11.12 587.483215
11.14 570.588257
11.16 553.499451
11.18 573.462036
11.20 598.436462
11.22 598.301208
11.24 606.903748
11.26 592.07312
11.28 575.650513
11.30 587.235291
11.32 601.68689
11.34 595.221924
11.36 576.01239
11.38 571.667114
11.40 582.68512
11.42 594.471497
11.44 580.750122
11.46 578.4599
11.48 585.148987
11.50 609.771667
11.52 606.507385
11.54 612.904419
11.56 589.339905
11.58 612.811768
11.60 650.088135
11.62 628.770447
11.64 579.115906
11.66 589.195679
11.68 603.823608
11.70 600.57843
11.72 620.431946
11.74 650.340454
11.76 649.028381
11.78 650.070679
11.80 673.772705
11.82 649.548645
11.84 656.219543
11.86 652.654053
11.88 660.483887
11.90 670.982483
11.92 690.209839
11.94 675.588806
11.96 688.354248
11.98 683.52832
12.00 706.851746
12.02 701.266479
12.04 709.981201
12.06 754.660767
12.08 757.183411
12.10 754.888
12.12 784.22821
12.14 795.795776
12.16 816.543274
12.18 818.759399
12.20 835.486755
12.22 848.464417
12.24 849.23761
12.26 884.91626
12.28 899.449463
12.30 898.779419
12.32 939.450684
12.34 980.453125
12.36 993.908936
12.38 1002.429993
12.40 987.766968
12.42 1055.99585
12.44 1094.199707
12.46 1108.870361
12.48 1124.868652
12.50 1170.891235
12.52 1201.071777
12.54 1211.562988
12.56 1224.539429
12.58 1243.233521
12.60 1275.238647
12.62 1239.627441
12.64 1196.466064
12.66 1212.566772
12.68 1226.350342
12.70 1193.856689
12.72 1120.100952
12.74 1110.515381
12.76 1116.323608
12.78 1089.47229
12.80 1036.88269
12.82 972.064392
12.84 929.329407
12.86 922.08606
12.88 911.167847
12.90 894.583069
12.92 886.348694
12.94 875.950195
12.96 812.384399
12.98 803.967896
13.00 812.691895
13.02 784.771729
13.04 787.623108
13.06 791.536987
13.08 797.488281
13.10 792.6427
13.12 743.570068
13.14 736.049255
13.16 749.719849
13.18 737.800964
13.20 758.202026
13.22 756.219421
13.24 724.110474
13.26 731.352112
13.28 712.080688
13.30 739.404236
13.32 759.841187
13.34 751.274963
13.36 736.504272
13.38 739.140198
13.40 706.839355
13.42 704.505432
13.44 720.539429
13.46 750.237732
13.48 707.733643
13.50 720.973206
13.52 728.19043
13.54 736.672852
13.56 734.28064
13.58 733.679626
13.60 742.253296
13.62 735.907349
13.64 740.537781
13.66 781.936157
13.68 782.892517
13.70 763.794434
13.72 773.852356
13.74 767.54657
13.76 773.281982
13.78 776.368591
13.80 810.524536
13.82 808.111694
13.84 811.776917
13.86 805.77002
13.88 784.228088
13.90 812.074402
13.92 827.832703
13.94 815.235168
13.96 819.336731
13.98 837.108643
14.00 827.43158
14.02 854.608521
14.04 855.84668
14.06 865.703796
14.08 879.569336
14.10 895.236267
14.12 872.731018
14.14 872.251404
14.16 853.623657
14.18 861.746094
14.20 850.851868
14.22 872.881592
14.24 863.52356
14.26 828.740295
14.28 826.656128
14.30 836.153992
14.32 833.728882
14.34 795.248169
14.36 817.626953
14.38 831.446533
14.40 842.10437
14.42 856.106262
14.44 833.234985
14.46 827.600525
14.48 846.795593
14.50 858.307312
14.52 830.789185
14.54 824.105286
14.56 850.165161
14.58 864.154358
14.60 866.8255
14.62 859.921326
14.64 885.114807
14.66 909.469482
14.68 934.761414
14.70 928.789246
14.72 943.375305
14.74 983.712769
14.76 1013.061951
14.78 1056.839233
14.80 1102.807739
14.82 1130.166382
14.84 1133.512695
14.86 1182.231934
14.88 1232.029785
14.90 1298.837158
14.92 1333.96936
14.94 1391.841675
14.96 1485.322632
14.98 1539.866699
15.00 1596.745483
15.02 1704.178833
15.04 1816.746094
15.06 1931.940918
15.08 2107.91748
15.10 2200.951416
15.12 2320.831787
15.14 2494.310547
15.16 2659.783691
15.18 2849.881104
15.20 3079.560303
15.22 3282.388428
15.24 3559.934814
15.26 3862.354736
15.28 4102.442871
15.30 4259.967773
15.32 4473.454102
15.34 4735.349121
15.36 4919.015137
15.38 5035.422852
15.40 5127.099609
15.42 5091.574219
15.44 4962.000977
15.46 4733.827148
15.48 4504.760254
15.50 4234.015137
15.52 3896.104248
15.54 3615.267334
15.56 3280.957031
15.58 2959.084473
15.60 2686.36084
15.62 2414.210938
15.64 2170.259277
15.66 2047.10083
15.68 1889.05481
15.70 1767.772583
15.72 1652.856812
15.74 1535.234741
15.76 1444.779419
15.78 1389.480469
15.80 1366.314209
15.82 1293.003174
15.84 1243.91626
15.86 1212.367432
15.88 1183.98999
15.90 1127.470337
15.92 1104.212646
15.94 1109.605225
15.96 1088.343018
15.98 1069.218384
16.00 997.906616
16.02 964.516663
16.04 947.406128
16.06 955.969116
16.08 932.279236
16.10 906.623962
16.12 909.182373
16.14 903.442261
16.16 885.09552
16.18 888.110107
16.20 879.312317
16.22 858.378418
16.24 863.232544
16.26 889.751465
16.28 866.48468
16.30 816.686096
16.32 829.011719
16.34 842.514465
16.36 836.039612
16.38 817.731567
16.40 808.112488
16.42 806.709229
16.44 807.366821
16.46 794.547546
16.48 826.122192
16.50 830.616516
16.52 821.006714
16.54 813.215088
16.56 817.76825
16.58 816.162354
16.60 805.454163
16.62 786.608582
16.64 802.778931
16.66 793.976501
16.68 781.842651
16.70 816.453918
16.72 821.247375
16.74 819.213074
16.76 801.599792
16.78 794.331848
16.80 805.856445
16.82 821.820068
16.84 799.096619
16.86 820.823608
16.88 817.385681
16.90 766.412903
16.92 768.547058
16.94 783.532104
16.96 801.646606
16.98 771.319336
17.00 758.532227
17.02 780.661682
17.04 814.323242
17.06 786.297546
17.08 777.96637
17.10 773.027283
17.12 809.231018
17.14 818.773926
17.16 815.82019
17.18 816.092896
17.20 781.591309
17.22 785.360413
17.24 791.357239
17.26 814.068481
17.28 801.383118
17.30 804.508972
17.32 790.580811
17.34 802.886475
17.36 806.038086
17.38 812.76062
17.40 826.268494
17.42 827.180115
17.44 817.53418
17.46 820.057861
17.48 813.442932
17.50 813.843933
17.52 817.662292
17.54 836.662659
17.56 832.659607
17.58 819.023438
17.60 815.781616
17.62 810.527344
17.64 822.368286
17.66 815.548279
17.68 815.831665
17.70 839.459534
17.72 870.152283
17.74 832.950562
17.76 842.993835
17.78 839.07251
17.80 834.768494
17.82 870.915161
17.84 881.031982
17.86 866.312622
17.88 878.019409
17.90 852.033691
17.92 830.890991
17.94 838.374329
17.96 848.282166
17.98 842.891357
18.00 859.828247
18.02 863.493347
18.04 825.839355
18.06 848.312195
18.08 893.465271
18.10 863.024292
18.12 836.196289
18.14 831.837585
18.16 825.922485
18.18 880.933289
18.20 900.513916
18.22 898.727417
18.24 882.302063
18.26 904.461304
18.28 898.549377
18.30 869.277039
18.32 867.80365
18.34 884.181519
18.36 902.220398
18.38 884.530457
18.40 860.239014
18.42 869.370361
18.44 892.984314
18.46 906.146484
18.48 879.747925
18.50 879.990479
18.52 887.12793
18.54 926.756348
18.56 907.527588
18.58 875.368408
18.60 883.436462
18.62 899.185303
18.64 888.273193
18.66 905.439575
18.68 916.386841
18.70 905.877563
18.72 907.905029
18.74 917.949646
18.76 908.614502
18.78 903.856567
18.80 923.892822
18.82 930.110291
18.84 952.541687
18.86 928.149719
18.88 916.738037
18.90 911.754944
18.92 922.424805
18.94 913.459656
18.96 939.623535
18.98 948.740051
19.00 927.388245
19.02 941.953186
19.04 923.78717
19.06 950.475464
19.08 958.150208
19.10 975.872437
19.12 987.277771
19.14 980.938538
19.16 941.2901
19.18 956.145935
19.20 971.590088
19.22 956.202759
19.24 938.086182
19.26 943.418457
19.28 951.851074
19.30 974.644348
19.32 974.628479
19.34 967.706177
19.36 969.986023
19.38 977.083984
19.40 963.68573
19.42 975.221313
19.44 984.108398
19.46 980.688538
19.48 981.331055
19.50 982.193481
19.52 1001.238586
19.54 996.740479
19.56 1026.477539
19.58 1035.211548
19.60 1021.587158
19.62 1003.145874
19.64 989.398499
19.66 995.2146
19.68 1005.48822
19.70 997.282837
19.72 1004.687317
19.74 1005.312317
19.76 1030.48999
19.78 1037.746704
19.80 1023.516296
19.82 1028.36731
19.84 1029.282715
19.86 1060.539917
19.88 1085.67749
19.90 1071.818115
19.92 1059.39856
19.94 1046.339966
19.96 1045.809692
19.98 1042.621826
20.00 1021.184875
20.02 1039.962402
20.04 1036.168579
20.06 1037.815308
20.08 1056.118286
20.10 1056.2677
20.12 1048.65332
20.14 1030.18689
20.16 1040.568481
20.18 1064.456909
20.20 1083.109619
20.22 1093.034668
20.24 1096.148315
20.26 1104.128784
20.28 1114.526733
20.30 1101.177979
20.32 1089.420776
20.34 1072.797119
20.36 1065.131592
20.38 1110.563721
20.40 1094.746582
20.42 1084.669922
20.44 1101.087402
20.46 1093.391235
20.48 1081.772461
20.50 1122.348633
20.52 1115.362671
20.54 1079.528564
20.56 1099.514404
20.58 1092.267212
20.60 1111.322754
20.62 1105.520996
20.64 1103.457764
20.66 1096.502441
20.68 1112.162598
20.70 1122.563599
20.72 1127.690796
20.74 1140.740112
20.76 1138.255493
20.78 1095.22583
20.80 1099.468506
20.82 1116.209229
20.84 1156.075195
20.86 1189.140137
20.88 1209.599731
20.90 1195.364868
20.92 1169.866577
20.94 1175.265137
20.96 1172.083374
20.98 1169.534912
21.00 1151.029907
21.02 1165.617554
21.04 1149.922607
21.06 1153.866699
21.08 1155.870728
21.10 1162.924927
21.12 1146.071899
21.14 1159.178345
21.16 1161.157349
21.18 1163.397705
21.20 1182.563477
21.22 1177.527832
21.24 1204.568115
21.26 1214.175781
21.28 1211.212524
21.30 1201.652832
21.32 1213.53772
21.34 1191.017822
21.36 1206.288574
21.38 1202.644409
21.40 1190.486084
21.42 1190.891846
21.44 1187.605957
21.46 1195.403564
21.48 1233.575195
21.50 1235.760986
21.52 1210.414429
21.54 1197.944824
21.56 1223.576904
21.58 1246.491699
21.60 1223.72583
21.62 1241.448486
21.64 1271.740234
21.66 1277.136475
21.68 1271.859009
21.70 1289.165527
21.72 1279.363892
21.74 1260.259766
21.76 1289.611938
21.78 1286.241089
21.80 1286.928833
21.82 1261.441162
21.84 1261.744873
21.86 1266.619629
21.88 1280.296631
21.90 1279.752075
21.92 1281.328369
21.94 1265.019165
21.96 1272.299683
21.98 1266.137207
22.00 1275.143188
22.02 1281.03772
22.04 1260.489136
22.06 1240.74646
22.08 1240.671143
22.10 1294.448975
22.12 1274.058838
22.14 1241.825562
22.16 1254.834595
22.18 1256.127563
22.20 1287.588379
22.22 1269.21521
22.24 1249.885864
22.26 1268.613525
22.28 1281.645996
22.30 1276.516724
22.32 1265.058838
22.34 1258.185913
22.36 1260.311035
22.38 1275.039917
22.40 1272.775391
22.42 1293.499756
22.44 1297.049316
22.46 1287.485718
22.48 1290.772583
22.50 1280.496826
22.52 1271.102295
22.54 1285.742432
22.56 1292.283691
22.58 1319.433105
22.60 1340.420288
22.62 1337.142334
22.64 1335.902466
22.66 1297.71875
22.68 1302.417725
22.70 1337.839844
22.72 1341.20813
22.74 1291.720215
22.76 1297.559326
22.78 1339.475464
22.80 1337.707886
22.82 1309.784546
22.84 1308.602051
22.86 1307.497681
22.88 1325.829102
22.90 1354.255127
22.92 1361.411133
22.94 1365.561279
22.96 1347.37561
22.98 1316.790771
23.00 1332.656006
23.02 1332.328369
23.04 1335.433472
23.06 1362.700928
23.08 1352.970581
23.10 1330.862305
23.12 1309.217651
23.14 1337.43457
23.16 1322.032104
23.18 1322.687744
23.20 1336.054565
23.22 1344.877319
23.24 1328.977661
23.26 1354.636963
23.28 1305.47644
23.30 1315.673096
23.32 1334.256958
23.34 1346.419556
23.36 1343.720825
23.38 1352.628052
23.40 1350.921509
23.42 1327.581787
23.44 1332.355225
23.46 1346.729858
23.48 1357.615479
23.50 1385.056274
23.52 1345.019531
23.54 1320.360352
23.56 1322.943481
23.58 1348.177002
23.60 1339.574585
23.62 1317.751587
23.64 1344.740112
23.66 1359.390991
23.68 1359.198853
23.70 1331.418701
23.72 1315.820801
23.74 1330.822144
23.76 1358.494995
23.78 1378.821533
23.80 1371.697632
23.82 1380.036255
23.84 1358.020752
23.86 1345.670288
23.88 1360.02002
23.90 1370.369629
23.92 1371.060547
23.94 1374.749268
23.96 1380.792236
23.98 1382.723511
24.00 1362.840942
24.02 1387.300903
24.04 1396.84375
24.06 1386.251709
24.08 1378.581665
24.10 1369.018188
24.12 1375.860718
24.14 1378.340576
24.16 1362.726318
24.18 1362.519531
24.20 1371.087158
24.22 1373.243042
24.24 1363.560181
24.26 1355.384521
24.28 1358.562744
24.30 1366.092896
24.32 1362.704102
24.34 1362.12439
24.36 1363.317383
24.38 1386.75647
24.40 1408.688599
24.42 1405.62085
24.44 1403.93396
24.46 1355.171021
24.48 1370.018799
24.50 1400.758789
24.52 1408.705811
24.54 1402.485352
24.56 1384.964844
24.58 1391.604248
24.60 1396.297363
24.62 1408.769043
24.64 1405.562134
24.66 1386.747437
24.68 1359.786987
24.70 1355.294922
24.72 1383.484375
24.74 1373.845581
24.76 1351.948975
24.78 1373.008911
24.80 1373.040039
24.82 1379.981323
24.84 1356.271606
24.86 1376.110718
24.88 1409.057861
24.90 1374.092407
24.92 1365.44873
24.94 1376.437378
24.96 1366.409912
24.98 1358.544922
25.00 1362.696167
25.02 1377.576172
25.04 1360.816528
25.06 1375.91748
25.08 1384.956421
25.10 1378.899292
25.12 1381.870117
25.14 1386.568726
25.16 1367.60376
25.18 1378.103027
25.20 1402.618408
25.22 1409.7146
25.24 1409.929321
25.26 1390.418701
25.28 1392.397949
25.30 1379.692749
25.32 1366.262573
25.34 1387.586426
25.36 1408.795044
25.38 1392.134277
25.40 1401.262207
25.42 1416.55481
25.44 1423.081909
25.46 1419.962891
25.48 1405.849731
25.50 1409.130737
25.52 1387.046021
25.54 1421.520752
25.56 1431.380859
25.58 1425.958862
25.60 1410.862793
25.62 1414.450684
25.64 1398.789307
25.66 1362.152588
25.68 1373.461182
25.70 1336.630005
25.72 1353.446045
25.74 1398.317993
25.76 1381.849609
25.78 1380.44458
25.80 1370.617554
25.82 1370.235596
25.84 1371.275879
25.86 1376.196777
25.88 1404.422485
25.90 1385.458984
25.92 1402.870483
25.94 1387.678955
25.96 1386.344849
25.98 1366.090088
26.00 1395.05188
26.02 1402.738647
26.04 1404.177979
26.06 1382.59668
26.08 1364.810181
26.10 1365.685425
26.12 1365.118896
26.14 1378.312744
26.16 1376.335815
26.18 1369.054443
26.20 1375.894653
26.22 1360.180298
26.24 1350.020752
26.26 1374.452393
26.28 1406.804688
26.30 1375.853394
26.32 1377.078613
26.34 1370.1698
26.36 1345.182007
26.38 1355.907471
26.40 1370.425659
26.42 1371.274902
26.44 1372.414551
26.46 1390.391357
26.48 1394.087036
26.50 1353.749634
26.52 1390.983276
26.54 1403.161987
26.56 1389.23938
26.58 1390.24353
26.60 1379.481567
26.62 1387.258667
26.64 1359.853027
26.66 1348.884399
26.68 1339.02771
26.70 1363.61499
26.72 1366.429077
26.74 1377.157471
26.76 1398.297852
26.78 1389.650024
26.80 1381.101685
26.82 1386.720459
26.84 1375.362915
26.86 1362.97522
26.88 1364.210083
26.90 1356.838745
26.92 1365.803711
26.94 1343.030273
26.96 1345.712646
26.98 1345.633789
27.00 1354.190186
27.02 1342.360474
27.04 1335.214966
27.06 1366.611816
27.08 1349.164795
27.10 1337.550171
27.12 1322.533691
27.14 1354.884155
27.16 1351.285767
27.18 1371.347046
27.20 1374.369507
27.22 1365.427368
27.24 1378.673462
27.26 1341.24292
27.28 1366.533447
27.30 1378.558594
27.32 1376.497192
27.34 1346.42627
27.36 1345.51416
27.38 1338.309082
27.40 1347.176758
27.42 1345.94043
27.44 1354.380615
27.46 1315.976196
27.48 1335.640381
27.50 1348.067993
27.52 1344.307251
27.54 1359.110229
27.56 1351.002197
27.58 1367.941284
27.60 1349.389648
27.62 1342.547852
27.64 1340.049561
27.66 1331.372192
27.68 1325.686035
27.70 1337.268677
27.72 1355.901245
27.74 1354.414307
27.76 1335.673462
27.78 1330.738647
27.80 1349.370117
27.82 1345.531372
27.84 1361.902954
27.86 1361.16626
27.88 1374.177368
27.90 1339.482422
27.92 1321.095215
27.94 1325.793335
27.96 1376.534546
27.98 1367.121582
28.00 1369.102783
28.02 1346.279053
28.04 1347.241821
28.06 1350.643433
28.08 1325.866821
28.10 1309.356812
28.12 1341.082886
28.14 1337.386108
28.16 1377.228516
28.18 1364.476196
28.20 1360.781372
28.22 1349.646851
28.24 1333.369995
28.26 1326.808838
28.28 1349.741089
28.30 1347.632935
28.32 1342.05249
28.34 1350.613037
28.36 1376.081299
28.38 1354.638062
28.40 1365.615967
28.42 1367.152344
28.44 1353.512695
28.46 1348.158203
28.48 1378.066772
28.50 1373.702515
28.52 1370.903564
28.54 1368.133545
28.56 1368.365723
28.58 1384.966675
28.60 1403.579956
28.62 1382.252686
28.64 1362.74646
28.66 1360.868042
28.68 1356.055908
28.70 1359.787964
28.72 1379.00769
28.74 1369.890991
28.76 1339.006836
28.78 1364.225342
28.80 1336.399048
28.82 1358.491211
28.84 1346.486206
28.86 1337.828125
28.88 1343.756958
28.90 1334.736084
28.92 1334.823364
28.94 1329.930298
28.96 1306.628906
28.98 1298.634644
29.00 1302.684814
29.02 1338.152588
29.04 1340.554565
29.06 1325.044922
29.08 1304.705322
29.10 1326.827515
29.12 1330.067871
29.14 1320.360474
29.16 1322.238892
29.18 1316.329834
29.20 1351.288208
29.22 1312.550781
29.24 1315.506592
29.26 1291.189331
29.28 1323.134644
29.30 1344.729004
29.32 1323.61377
29.34 1341.813354
29.36 1313.107666
29.38 1278.997925
29.40 1293.269043
29.42 1305.036011
29.44 1317.412354
29.46 1323.10498
29.48 1316.697144
29.50 1332.718994
29.52 1316.040894
29.54 1283.075073
29.56 1287.4375
29.58 1319.347778
29.60 1315.325806
29.62 1331.545898
29.64 1348.838135
29.66 1348.87207
29.68 1331.773071
29.70 1296.762939
29.72 1315.653442
29.74 1351.079712
29.76 1331.564575
29.78 1314.541016
29.80 1302.352539
29.82 1315.992432
29.84 1308.87793
29.86 1314.866943
29.88 1295.037598
29.90 1294.588623
29.92 1293.625366
29.94 1335.717529
29.96 1326.549683
29.98 1324.774414
30.00 1322.276123
30.02 1319.418213
30.04 1305.487915
30.06 1335.797852
30.08 1320.083496
30.10 1314.942017
30.12 1334.00708
30.14 1374.8302
30.16 1356.247681
30.18 1341.952026
30.20 1337.607056
30.22 1325.019531
30.24 1319.50293
30.26 1321.945068
30.28 1339.308105
30.30 1343.822144
30.32 1348.839478
30.34 1352.129883
30.36 1353.939819
30.38 1341.950317
30.40 1338.639526
30.42 1340.024048
30.44 1348.545166
30.46 1357.58374
30.48 1381.283203
30.50 1374.032715
30.52 1365.1604
30.54 1375.076782
30.56 1373.421875
30.58 1363.4021
30.60 1359.57605
30.62 1360.048584
30.64 1368.735352
30.66 1384.776855
30.68 1381.584961
30.70 1400.564087
30.72 1426.713989
30.74 1414.063965
30.76 1439.274414
30.78 1513.758545
30.80 1519.275635
30.82 1555.414551
30.84 1565.953125
30.86 1582.99231
30.88 1626.545654
30.90 1664.00415
30.92 1745.8125
30.94 1806.442139
30.96 1900.525757
30.98 2002.069336
31.00 2059.658936
31.02 2164.591064
31.04 2288.035645
31.06 2318.166748
31.08 2328.744629
31.10 2349.474121
31.12 2401.682861
31.14 2453.851807
31.16 2427.952881
31.18 2374.250488
31.20 2294.766602
31.22 2231.914063
31.24 2146.967529
31.26 2028.031616
31.28 1949.86731
31.30 1894.158813
31.32 1821.8573
31.34 1722.706177
31.36 1631.50415
31.38 1558.113403
31.40 1502.822754
31.42 1465.753784
31.44 1457.363647
31.46 1437.036621
31.48 1395.459106
31.50 1359.882813
31.52 1349.769409
31.54 1355.50708
31.56 1324.285522
31.58 1306.317139
31.60 1296.062622
31.62 1282.692749
31.64 1287.925049
31.66 1285.657593
31.68 1274.006836
31.70 1279.463257
31.72 1280.424561
31.74 1254.596313
31.76 1268.165161
31.78 1256.618408
31.80 1218.443359
31.82 1244.533569
31.84 1242.230957
31.86 1232.477905
31.88 1245.513428
31.90 1252.546509
31.92 1229.947632
31.94 1234.578247
31.96 1215.823242
31.98 1232.809082
32.00 1209.222656
32.02 1178.520386
32.04 1205.169067
32.06 1213.787964
32.08 1204.505981
32.10 1212.123169
32.12 1207.529541
32.14 1199.957397
32.16 1194.180054
32.18 1177.323853
32.20 1206.351807
32.22 1182.207031
32.24 1160.978638
32.26 1177.08252
32.28 1179.296631
32.30 1175.181763
32.32 1179.994385
32.34 1173.909424
32.36 1187.797119
32.38 1190.767212
32.40 1175.001099
32.42 1174.261353
32.44 1152.252197
32.46 1151.341553
32.48 1164.982788
32.50 1151.161255
32.52 1143.028198
32.54 1153.797974
32.56 1146.310425
32.58 1162.671875
32.60 1136.435181
32.62 1155.857788
32.64 1160.631348
32.66 1129.963623
32.68 1131.138062
32.70 1107.601685
32.72 1115.370972
32.74 1153.106323
32.76 1142.515137
32.78 1137.337524
32.80 1145.969727
32.82 1149.399292
32.84 1124.617676
32.86 1110.705322
32.88 1141.592407
32.90 1141.934692
32.92 1118.592041
32.94 1096.349243
32.96 1115.922729
32.98 1116.664307
33.00 1116.113892
33.02 1115.583862
33.04 1115.449585
33.06 1133.006592
33.08 1107.542969
33.10 1087.661743
33.12 1085.905396
33.14 1106.349609
33.16 1113.346191
33.18 1110.999878
33.20 1105.804321
33.22 1097.69458
33.24 1095.876709
33.26 1092.748535
33.28 1086.687988
33.30 1096.965698
33.32 1125.929321
33.34 1105.233032
33.36 1105.576782
33.38 1104.709595
33.40 1085.507568
33.42 1085.857544
33.44 1079.37146
33.46 1074.125732
33.48 1098.811768
33.50 1086.268188
33.52 1086.174194
33.54 1077.418335
33.56 1079.63562
33.58 1092.225464
33.60 1064.547119
33.62 1051.878052
33.64 1066.506836
33.66 1072.865234
33.68 1091.327271
33.70 1067.066284
33.72 1056.992554
33.74 1067.164673
33.76 1067.419678
33.78 1063.988647
33.80 1061.460449
33.82 1050.296387
33.84 1057.191162
33.86 1060.275146
33.88 1040.217285
33.90 1025.057983
33.92 1036.126587
33.94 1049.348633
33.96 1072.426392
33.98 1047.216064
34.00 1046.040894
34.02 1054.462524
34.04 1047.671265
34.06 1050.644043
34.08 1061.946411
34.10 1042.37915
34.12 1032.259277
34.14 1034.592285
34.16 1042.437866
34.18 1032.78418
34.20 1028.209106
34.22 1047.362915
34.24 1026.439209
34.26 1012.488037
34.28 1023.450562
34.30 1034.127197
34.32 1032.462646
34.34 1020.466675
34.36 1011.55304
34.38 992.710327
34.40 1004.404297
34.42 1003.290161
34.44 1011.653076
34.46 1014.007813
34.48 1038.626587
34.50 1018.678101
34.52 1027.583618
34.54 1028.693237
34.56 1010.28009
34.58 993.886536
34.60 1001.58252
34.62 1033.130127
34.64 1054.582031
34.66 1033.894409
34.68 1021.677856
34.70 1011.091187
34.72 1015.869507
34.74 1014.059814
34.76 999.625549
34.78 1019.733154
34.80 1028.68457
34.82 1036.544067
34.84 1029.307373
34.86 1018.848328
34.88 1017.731628
34.90 1037.825317
34.92 1032.22229
34.94 1012.274841
34.96 1010.364746
34.98 992.626099
35.00 985.143555
35.02 1011.610229
35.04 991.723511
35.06 983.697144
35.08 992.317383
35.10 992.50177
35.12 971.356628
35.14 957.564209
35.16 955.873474
35.18 969.450012
35.20 982.022461
35.22 968.444519
35.24 974.178101
35.26 974.72406
35.28 949.858948
35.30 957.701965
35.32 955.862
35.34 970.570435
35.36 947.939819
35.38 934.984131
35.40 926.515015
35.42 922.260437
35.44 930.662537
35.46 924.424927
35.48 929.796875
35.50 931.117859
35.52 935.922363
35.54 930.10437
35.56 903.683655
35.58 907.011169
35.60 909.622314
35.62 899.49054
35.64 913.588318
35.66 906.02356
35.68 904.93927
35.70 895.567322
35.72 904.872498
35.74 896.357605
35.76 871.184143
35.78 884.27533
35.80 899.129028
35.82 899.852966
35.84 892.278931
35.86 894.89624
35.88 886.577576
35.90 864.356812
35.92 866.831482
35.94 893.634094
35.96 891.298218
35.98 866.697693
36.00 866.678162
36.02 876.697266
36.04 882.271118
36.06 872.885315
36.08 860.238342
36.10 854.354431
36.12 871.333679
36.14 875.409973
36.16 872.381409
36.18 875.227417
36.20 856.135437
36.22 867.187866
36.24 869.634644
36.26 865.045349
36.28 870.869385
36.30 848.587524
36.32 839.102417
36.34 853.500244
36.36 854.91748
36.38 851.775452
36.40 841.086609
36.42 845.263062
36.44 825.94751
36.46 820.540649
36.48 836.94397
36.50 844.494873
36.52 865.785156
36.54 859.511047
36.56 844.189453
36.58 849.613159
36.60 842.030518
36.62 839.089783
36.64 827.555298
36.66 830.611755
36.68 820.343628
36.70 833.63678
36.72 829.565308
36.74 808.626709
36.76 799.098083
36.78 805.831848
36.80 806.732178
36.82 807.957886
36.84 831.555176
36.86 813.499084
36.88 805.782104
36.90 801.993469
36.92 813.962585
36.94 819.38092
36.96 797.294006
36.98 801.919434
37.00 795.62793
37.02 794.213257
37.04 785.915588
37.06 781.840393
37.08 784.408081
37.10 784.62207
37.12 789.687378
37.14 803.044128
37.16 776.249939
37.18 784.145935
37.20 797.224976
37.22 792.901794
37.24 791.016785
37.26 800.569763
37.28 787.291809
37.30 778.592773
37.32 778.427063
37.34 797.502991
37.36 807.019409
37.38 792.557434
37.40 785.228577
37.42 782.112549
37.44 767.235779
37.46 763.371643
37.48 780.584656
37.50 768.098999
37.52 747.317017
37.54 756.75415
37.56 756.912476
37.58 783.368469
37.60 800.865723
37.62 791.158813
37.64 767.380371
37.66 763.345642
37.68 760.496643
37.70 758.881653
37.72 767.458252
37.74 754.508911
37.76 773.826111
37.78 783.967529
37.80 775.187927
37.82 770.065063
37.84 767.799133
37.86 756.739258
37.88 741.772705
37.90 736.797668
37.92 754.21991
37.94 766.298706
37.96 774.930786
37.98 776.059326
38.00 761.701172
38.02 743.367371
38.04 765.566528
38.06 769.863464
38.08 763.383179
38.10 762.394287
38.12 744.062073
38.14 749.905151
38.16 755.93158
38.18 757.693604
38.20 752.866455
38.22 768.150818
38.24 775.138916
38.26 780.942688
38.28 789.921936
38.30 777.386475
38.32 773.280823
38.34 767.884644
38.36 758.46814
38.38 764.669922
38.40 762.909424
38.42 773.771118
38.44 773.494995
38.46 773.938477
38.48 768.835815
38.50 765.805969
38.52 760.34845
38.54 780.468994
38.56 779.055908
38.58 775.275085
38.60 771.141663
38.62 764.75415
38.64 764.266846
38.66 751.288391
38.68 744.662292
38.70 768.994995
38.72 766.470947
38.74 787.851257
38.76 784.00531
38.78 772.112427
38.80 747.689819
38.82 750.377258
38.84 743.273315
38.86 740.168884
38.88 737.317627
38.90 736.595947
38.92 730.081482
38.94 729.977173
38.96 736.254883
38.98 745.298218
39.00 759.596436
39.02 741.52063
39.04 742.485779
39.06 721.98938
39.08 718.896851
39.10 733.928589
39.12 731.89563
39.14 716.569824
39.16 719.330688
39.18 729.23645
39.20 736.019775
39.22 740.599854
39.24 723.270447
39.26 710.697876
39.28 725.716125
39.30 733.361084
39.32 737.171387
39.34 726.68396
39.36 723.865356
39.38 730.792114
39.40 740.204041
39.42 729.778076
39.44 715.824341
39.46 744.449707
39.48 740.375
39.50 732.217712
39.52 740.09729
39.54 731.183167
39.56 723.947876
39.58 711.06842
39.60 724.343811
39.62 715.055786
39.64 708.61554
39.66 726.996826
39.68 720.290649
39.70 718.91217
39.72 710.997742
39.74 729.651611
39.76 720.831665
39.78 691.540894
39.80 689.835876
39.82 708.294678
39.84 710.867981
39.86 711.731201
39.88 692.924194
39.90 696.246887
39.92 731.598694
39.94 711.67334
39.96 702.512451
39.98 705.266052
40.00 713.749939
