!@!!GADDS PLOTSO FILE: Chi integration type
!@!!Title/SampleName: ML_MAPbX3
!@!!User: NREL
!@!!Site: NREL SERF C211; SN 2510
!@!!Frame: 081022_MLProject_000_012.gfrm
!@!!Wavelengths    1.54184   1.54056   1.54439
!@!!Frame angles: 2Theta: 28.000 Omega: 5.000 Phi: 0.000 Chi: 90.000
!@!!Integration range: 2Theta: 10.000 to 40.000  Gamma: -100.000 to -80.000
!@!!Integration method: bin normalized
!@!N
!@!SS
!@!M
!@!L 0.0 0.0 0.0 0.0
!@!XDegrees
!@!YCounts
10.00 255.64476
10.02 243.010742
10.04 252.20784
10.06 237.23204
10.08 239.358032
10.10 220.202316
10.12 226.898621
10.14 257.178436
10.16 234.992401
10.18 255.999435
10.20 267.811768
10.22 259.196106
10.24 239.282089
10.26 252.397186
10.28 236.266876
10.30 246.673828
10.32 248.675385
10.34 242.853134
10.36 248.403183
10.38 244.985626
10.40 251.861679
10.42 256.442993
10.44 254.257751
10.46 255.987961
10.48 266.554047
10.50 267.739349
10.52 248.740631
10.54 254.789948
10.56 264.914734
10.58 250.369278
10.60 244.244598
10.62 245.904312
10.64 262.558319
10.66 261.628784
10.68 257.247375
10.70 260.092224
10.72 270.266083
10.74 254.944534
10.76 247.651779
10.78 246.540985
10.80 249.242371
10.82 251.808182
10.84 265.318085
10.86 273.056091
10.88 272.276245
10.90 259.702728
10.92 262.489929
10.94 246.500854
10.96 256.310638
10.98 257.681641
11.00 249.81633
11.02 242.804382
11.04 261.577026
11.06 264.313629
11.08 263.987488
11.10 269.594635
11.12 252.786423
11.14 257.419617
11.16 285.211548
11.18 274.979218
11.20 243.677048
11.22 250.511154
11.24 260.227814
11.26 281.014832
11.28 272.660095
11.30 274.596466
11.32 271.424835
11.34 259.672333
11.36 262.296295
11.38 248.211395
11.40 248.376343
11.42 255.975464
11.44 255.725906
11.46 271.48645
11.48 271.73056
11.50 290.132996
11.52 286.740723
11.54 276.206543
11.56 266.986389
11.58 271.180237
11.60 268.921997
11.62 277.257782
11.64 278.328491
11.66 271.944458
11.68 276.927277
11.70 268.798981
11.72 267.87027
11.74 277.655914
11.76 281.357239
11.78 282.560425
11.80 295.068085
11.82 284.822571
11.84 264.149414
11.86 281.783875
11.88 285.993561
11.90 275.872162
11.92 271.829926
11.94 271.382751
11.96 254.380325
11.98 276.559662
12.00 296.980927
12.02 289.933197
12.04 286.947052
12.06 285.359131
12.08 294.812195
12.10 293.163666
12.12 296.834015
12.14 307.320068
12.16 296.594696
12.18 298.405884
12.20 298.329346
12.22 294.502472
12.24 303.816284
12.26 315.141266
12.28 318.615326
12.30 315.235748
12.32 329.807587
12.34 320.357391
12.36 320.607758
12.38 325.958862
12.40 328.692627
12.42 324.565186
12.44 324.958008
12.46 346.683746
12.48 347.743439
12.50 371.380798
12.52 349.511414
12.54 338.920227
12.56 355.929871
12.58 363.788757
12.60 353.815338
12.62 357.205078
12.64 346.824982
12.66 360.418793
12.68 366.69635
12.70 353.399628
12.72 352.553345
12.74 333.789185
12.76 316.576233
12.78 335.934662
12.80 321.397766
12.82 333.717346
12.84 331.009857
12.86 321.344788
12.88 306.868317
12.90 308.574341
12.92 317.087341
12.94 309.008392
12.96 309.995422
12.98 326.052521
13.00 312.990692
13.02 331.452972
13.04 342.516571
13.06 338.659363
13.08 337.79541
13.10 331.803375
13.12 317.527008
13.14 311.097717
13.16 317.715607
13.18 337.878906
13.20 325.439484
13.22 334.608856
13.24 332.281586
13.26 330.335571
13.28 348.27121
13.30 360.728241
13.32 363.142609
13.34 342.465546
13.36 349.802551
13.38 369.109955
13.40 388.391754
13.42 422.265015
13.44 397.789185
13.46 389.012726
13.48 392.980438
13.50 402.752655
13.52 407.271027
13.54 441.228607
13.56 473.627258
13.58 498.947876
13.60 517.040955
13.62 522.27655
13.64 539.988708
13.66 543.668213
13.68 588.47583
13.70 609.317871
13.72 622.038391
13.74 655.171814
13.76 688.333374
13.78 752.301392
13.80 816.216614
13.82 823.098694
13.84 849.077209
13.86 870.091614
13.88 897.593994
13.90 950.445007
13.92 983.632568
13.94 989.314209
13.96 1061.239014
13.98 1132.654175
14.00 1151.353638
14.02 1114.596191
14.04 1138.582886
14.06 1140.217773
14.08 1124.94397
14.10 1064.166748
14.12 1039.071533
14.14 1042.334106
14.16 1003.09845
14.18 927.818787
14.20 883.398621
14.22 792.91095
14.24 747.680786
14.26 683.122864
14.28 632.599426
14.30 562.686646
14.32 529.315735
14.34 494.832184
14.36 482.076233
14.38 445.971069
14.40 437.289886
14.42 440.006378
14.44 416.200806
14.46 409.616577
14.48 412.606232
14.50 410.741089
14.52 399.793427
14.54 392.818298
14.56 373.980072
14.58 379.458618
14.60 363.815613
14.62 349.32193
14.64 371.120422
14.66 367.104736
14.68 366.690155
14.70 370.353119
14.72 356.924744
14.74 355.199677
14.76 359.36441
14.78 355.445374
14.80 363.17984
14.82 360.790985
14.84 374.100372
14.86 376.735168
14.88 353.509888
14.90 372.987518
14.92 383.367981
14.94 371.176056
14.96 389.227356
14.98 373.078278
15.00 382.745392
15.02 389.075165
15.04 402.097473
15.06 421.090302
15.08 426.598877
15.10 415.422241
15.12 437.926178
15.14 437.858612
15.16 449.555481
15.18 468.498169
15.20 469.310242
15.22 486.622833
15.24 492.1026
15.26 523.87439
15.28 522.969788
15.30 509.141113
15.32 527.050232
15.34 556.615417
15.36 568.689819
15.38 584.903442
15.40 594.729614
15.42 625.114624
15.44 635.29126
15.46 617.652649
15.48 627.094299
15.50 624.952942
15.52 631.927002
15.54 616.339722
15.56 585.384644
15.58 588.672485
15.60 565.64563
15.62 551.254272
15.64 543.800354
15.66 524.404297
15.68 512.962463
15.70 483.975037
15.72 485.34021
15.74 471.315521
15.76 437.706757
15.78 434.431061
15.80 438.682831
15.82 451.027649
15.84 423.784515
15.86 395.938171
15.88 413.361572
15.90 409.717285
15.92 394.178619
15.94 400.459259
15.96 401.404938
15.98 402.402405
16.00 404.051453
16.02 372.861664
16.04 369.189545
16.06 370.74527
16.08 370.456116
16.10 368.100067
16.12 348.311127
16.14 360.517578
16.16 365.781372
16.18 345.655579
16.20 354.413544
16.22 363.925598
16.24 361.765533
16.26 358.910889
16.28 356.453522
16.30 370.137665
16.32 370.29361
16.34 362.997375
16.36 370.640686
16.38 360.912628
16.40 354.813293
16.42 373.726166
16.44 397.142181
16.46 366.483063
16.48 341.087891
16.50 346.834564
16.52 354.107086
16.54 372.426605
16.56 357.543457
16.58 378.818054
16.60 367.737305
16.62 361.819061
16.64 379.259186
16.66 373.737
16.68 362.315887
16.70 379.94043
16.72 381.681091
16.74 368.945374
16.76 391.290771
16.78 376.075531
16.80 359.28186
16.82 376.453156
16.84 373.967712
16.86 390.180359
16.88 399.383209
16.90 388.244568
16.92 362.790924
16.94 368.730774
16.96 376.998413
16.98 377.158356
17.00 374.766479
17.02 388.271149
17.04 381.252167
17.06 387.19873
17.08 404.151398
17.10 389.01825
17.12 376.290741
17.14 369.287079
17.16 372.407104
17.18 377.404144
17.20 379.129791
17.22 380.801941
17.24 381.0271
17.26 385.167755
17.28 389.607849
17.30 368.586975
17.32 378.262177
17.34 377.479004
17.36 367.589325
17.38 387.297516
17.40 380.627869
17.42 391.390472
17.44 393.36618
17.46 397.042053
17.48 396.692963
17.50 384.562592
17.52 400.39325
17.54 399.480652
17.56 378.844757
17.58 374.419952
17.60 363.245239
17.62 392.33429
17.64 392.819366
17.66 381.181
17.68 407.921509
17.70 406.929749
17.72 409.294128
17.74 406.252838
17.76 410.202393
17.78 409.173126
17.80 414.943024
17.82 410.44278
17.84 397.629822
17.86 402.425385
17.88 396.816101
17.90 400.116821
17.92 404.762512
17.94 413.169434
17.96 413.141083
17.98 409.522827
18.00 411.311157
18.02 425.748535
18.04 406.24408
18.06 405.80191
18.08 435.535431
18.10 408.826538
18.12 402.724365
18.14 394.101227
18.16 396.333313
18.18 403.059235
18.20 424.512909
18.22 439.761383
18.24 434.123871
18.26 440.147949
18.28 435.131226
18.30 426.621735
18.32 420.272675
18.34 449.853058
18.36 441.12619
18.38 417.22641
18.40 405.85965
18.42 411.269623
18.44 402.947693
18.46 414.416138
18.48 435.284271
18.50 441.457825
18.52 426.294434
18.54 419.117157
18.56 430.903198
18.58 431.972717
18.60 439.909576
18.62 437.415253
18.64 449.346985
18.66 433.124695
18.68 429.130981
18.70 442.684906
18.72 432.933502
18.74 443.90976
18.76 441.281555
18.78 432.106506
18.80 443.955139
18.82 473.778076
18.84 446.335297
18.86 438.14389
18.88 448.144531
18.90 446.332947
18.92 440.717285
18.94 448.042755
18.96 460.362
18.98 454.570007
19.00 449.23288
19.02 444.627472
19.04 459.623901
19.06 455.777405
19.08 451.452148
19.10 431.56134
19.12 443.323273
19.14 450.997864
19.16 464.772217
19.18 455.067017
19.20 461.6539
19.22 462.742401
19.24 466.375214
19.26 454.950287
19.28 473.488861
19.30 480.047607
19.32 466.238678
19.34 462.866241
19.36 459.760986
19.38 455.169434
19.40 455.625641
19.42 461.293701
19.44 464.383545
19.46 463.172607
19.48 476.94101
19.50 474.997772
19.52 488.378387
19.54 477.38501
19.56 466.807251
19.58 468.818909
19.60 474.766296
19.62 472.264893
19.64 483.66748
19.66 487.869659
19.68 473.274139
19.70 481.484894
19.72 514.036621
19.74 512.459229
19.76 486.076721
19.78 493.844025
19.80 480.520447
19.82 482.736725
19.84 487.720337
19.86 521.15155
19.88 505.014801
19.90 530.231567
19.92 531.65564
19.94 518.497986
19.96 523.00177
19.98 511.847961
20.00 510.635559
20.02 494.373505
20.04 502.667969
20.06 495.36673
20.08 495.257538
20.10 509.012573
20.12 514.132385
20.14 515.835449
20.16 520.11792
20.18 520.596069
20.20 529.530823
20.22 532.735107
20.24 538.405701
20.26 533.766235
20.28 536.90979
20.30 529.892456
20.32 528.604309
20.34 533.830811
20.36 537.885193
20.38 528.43573
20.40 517.336731
20.42 511.218872
20.44 520.292175
20.46 516.451294
20.48 514.535889
20.50 511.524109
20.52 524.559448
20.54 529.200867
20.56 537.921814
20.58 537.132324
20.60 539.460022
20.62 543.531738
20.64 529.570251
20.66 530.308777
20.68 527.946045
20.70 533.947205
20.72 536.458557
20.74 543.845703
20.76 533.10675
20.78 558.167664
20.80 577.069336
20.82 583.582703
20.84 583.099609
20.86 572.842773
20.88 573.36438
20.90 569.671265
20.92 570.494019
20.94 558.764099
20.96 556.514038
20.98 563.939331
21.00 553.921021
21.02 544.953186
21.04 567.278503
21.06 561.731812
21.08 557.741943
21.10 574.627808
21.12 578.425293
21.14 567.159607
21.16 556.514893
21.18 559.92804
21.20 562.1297
21.22 577.175781
21.24 589.107605
21.26 588.744873
21.28 582.05127
21.30 562.893982
21.32 566.080688
21.34 580.045776
21.36 572.266174
21.38 572.248291
21.40 594.463562
21.42 591.896667
21.44 582.172424
21.46 561.227844
21.48 576.621582
21.50 578.59613
21.52 597.781006
21.54 585.963501
21.56 582.02594
21.58 597.353088
21.60 618.562805
21.62 612.259399
21.64 620.23053
21.66 620.810852
21.68 601.062622
21.70 620.492493
21.72 643.032837
21.74 640.56665
21.76 627.049438
21.78 619.384155
21.80 606.851318
21.82 616.282166
21.84 630.987244
21.86 657.863831
21.88 657.29187
21.90 652.737061
21.92 650.566467
21.94 643.012695
21.96 667.324585
21.98 646.13385
22.00 656.258057
22.02 662.033569
22.04 650.586487
22.06 647.662109
22.08 642.882263
22.10 636.975342
22.12 635.240112
22.14 635.455627
22.16 665.967712
22.18 651.547058
22.20 668.930176
22.22 658.355347
22.24 646.378845
22.26 640.479004
22.28 634.04425
22.30 624.132568
22.32 626.005432
22.34 632.290955
22.36 619.934448
22.38 613.316162
22.40 620.472778
22.42 616.116699
22.44 637.568848
22.46 631.935547
22.48 631.858826
22.50 645.870483
22.52 652.659912
22.54 637.534363
22.56 625.107178
22.58 631.623169
22.60 626.898682
22.62 623.718445
22.64 640.125854
22.66 630.04718
22.68 619.611206
22.70 626.912292
22.72 619.064209
22.74 633.156494
22.76 640.851501
22.78 661.984375
22.80 645.818604
22.82 645.292542
22.84 645.972839
22.86 651.238708
22.88 640.703491
22.90 632.38446
22.92 652.107422
22.94 646.002502
22.96 665.086792
22.98 664.957275
23.00 676.601501
23.02 647.798218
23.04 642.432922
23.06 634.05188
23.08 625.676514
23.10 638.714355
23.12 646.997253
23.14 643.427185
23.16 639.413208
23.18 652.323608
23.20 662.663208
23.22 652.157593
23.24 662.222107
23.26 660.870483
23.28 664.533386
23.30 661.334473
23.32 673.079163
23.34 674.266296
23.36 665.887268
23.38 644.697571
23.40 660.91864
23.42 637.910583
23.44 646.004211
23.46 650.650635
23.48 647.825806
23.50 665.919922
23.52 662.230042
23.54 650.299988
23.56 677.141357
23.58 656.10437
23.60 650.753479
23.62 674.77832
23.64 673.689819
23.66 663.782959
23.68 655.1427
23.70 653.105957
23.72 650.592224
23.74 655.121765
23.76 635.578613
23.78 644.805298
23.80 651.209717
23.82 650.628784
23.84 642.733032
23.86 640.342346
23.88 655.254761
23.90 659.397705
23.92 652.206055
23.94 681.003906
23.96 672.397278
23.98 675.568176
24.00 674.221497
24.02 663.936401
24.04 664.32373
24.06 665.528564
24.08 664.763367
24.10 678.158691
24.12 672.061218
24.14 661.601013
24.16 662.482727
24.18 670.283752
24.20 678.16925
24.22 673.259094
24.24 648.692444
24.26 673.278381
24.28 690.964966
24.30 683.296997
24.32 660.95813
24.34 667.995544
24.36 683.999268
24.38 691.977417
24.40 687.496704
24.42 693.134521
24.44 692.457458
24.46 694.276917
24.48 691.582275
24.50 661.013184
24.52 669.801331
24.54 692.297241
24.56 688.229309
24.58 679.907532
24.60 678.001709
24.62 700.775208
24.64 699.379578
24.66 669.774414
24.68 674.197021
24.70 669.354309
24.72 666.017761
24.74 673.877136
24.76 676.078552
24.78 659.350159
24.80 680.041382
24.82 666.776917
24.84 678.735291
24.86 663.752441
24.88 660.089111
24.90 688.579102
24.92 699.809998
24.94 706.833801
24.96 692.216248
24.98 666.948242
25.00 692.287781
25.02 694.666016
25.04 684.835266
25.06 688.508972
25.08 679.30127
25.10 679.48053
25.12 672.166748
25.14 658.68988
25.16 663.319763
25.18 675.013
25.20 670.543457
25.22 670.741882
25.24 677.919006
25.26 686.349792
25.28 687.848999
25.30 704.953247
25.32 687.022644
25.34 683.752258
25.36 684.737976
25.38 683.673279
25.40 668.565308
25.42 678.353088
25.44 686.724121
25.46 672.966431
25.48 653.672302
25.50 659.221069
25.52 676.203003
25.54 653.592651
25.56 663.220093
25.58 665.119568
25.60 674.627747
25.62 653.632813
25.64 679.6698
25.66 687.444031
25.68 676.928711
25.70 664.003052
25.72 671.160461
25.74 669.513123
25.76 685.222046
25.78 686.245483
25.80 684.325989
25.82 679.488892
25.84 665.731812
25.86 666.865784
25.88 644.52063
25.90 666.108826
25.92 690.387024
25.94 693.328979
25.96 681.299194
25.98 670.03125
26.00 676.410095
26.02 671.155212
26.04 660.036316
26.06 652.983521
26.08 665.661499
26.10 676.371094
26.12 689.288574
26.14 677.763184
26.16 674.042725
26.18 689.599609
26.20 686.804138
26.22 670.183472
26.24 666.845276
26.26 675.885498
26.28 676.576111
26.30 674.466858
26.32 675.035156
26.34 657.352478
26.36 652.364014
26.38 676.938049
26.40 681.766846
26.42 675.550537
26.44 654.862427
26.46 652.742737
26.48 677.056335
26.50 667.270996
26.52 686.655457
26.54 686.967407
26.56 689.512878
26.58 676.456299
26.60 667.943298
26.62 667.161804
26.64 649.521729
26.66 646.128723
26.68 665.280518
26.70 649.159363
26.72 644.18634
26.74 647.866699
26.76 660.661133
26.78 668.134583
26.80 671.526978
26.82 662.653748
26.84 648.743835
26.86 653.201111
26.88 678.60144
26.90 661.98938
26.92 657.644043
26.94 645.825073
26.96 665.811096
26.98 675.725464
27.00 681.437988
27.02 678.40802
27.04 663.021301
27.06 669.133789
27.08 667.084167
27.10 650.253235
27.12 645.728149
27.14 676.931213
27.16 681.916077
27.18 664.241699
27.20 662.633362
27.22 677.750305
27.24 669.459656
27.26 668.957581
27.28 663.631104
27.30 666.222046
27.32 672.213379
27.34 652.202515
27.36 657.089722
27.38 650.645264
27.40 672.899048
27.42 649.776917
27.44 641.842224
27.46 653.431885
27.48 656.686584
27.50 652.271667
27.52 665.00238
27.54 675.8526
27.56 678.80957
27.58 656.570618
27.60 640.541992
27.62 663.843323
27.64 672.963745
27.66 681.505615
27.68 665.025696
27.70 671.301208
27.72 676.544006
27.74 685.151245
27.76 689.348083
27.78 680.815125
27.80 662.981934
27.82 683.426697
27.84 700.532837
27.86 707.059326
27.88 713.073059
27.90 711.142273
27.92 689.148132
27.94 715.545654
27.96 717.597351
27.98 749.317322
28.00 749.072388
28.02 737.929871
28.04 750.165955
28.06 756.933594
28.08 755.87616
28.10 777.69696
28.12 795.128418
28.14 831.849243
28.16 846.317261
28.18 855.964294
28.20 859.681274
28.22 901.508118
28.24 931.180786
28.26 977.305969
28.28 995.163513
28.30 1001.23407
28.32 1028.523315
28.34 1028.851929
28.36 1027.414307
28.38 1058.995605
28.40 1047.946289
28.42 1005.397949
28.44 987.187134
28.46 970.217712
28.48 938.337891
28.50 920.043396
28.52 896.984009
28.54 884.196167
28.56 839.726196
28.58 833.981079
28.60 803.944641
28.62 765.676575
28.64 747.386353
28.66 748.155518
28.68 746.973328
28.70 715.581543
28.72 719.841187
28.74 716.500793
28.76 693.407227
28.78 684.483032
28.80 680.023926
28.82 675.138977
28.84 660.355469
28.86 659.753418
28.88 659.718933
28.90 659.095459
28.92 647.890015
28.94 643.232422
28.96 646.445374
28.98 632.308594
29.00 649.062805
29.02 648.846375
29.04 636.716675
29.06 646.903748
29.08 635.775818
29.10 640.627808
29.12 645.354553
29.14 641.856873
29.16 636.594849
29.18 616.65918
29.20 625.784851
29.22 641.723389
29.24 642.732605
29.26 638.682373
29.28 629.799316
29.30 630.206848
29.32 628.32782
29.34 636.478882
29.36 636.584045
29.38 620.692261
29.40 637.403931
29.42 624.603088
29.44 638.676453
29.46 632.055664
29.48 604.137024
29.50 616.535217
29.52 619.418091
29.54 610.487244
29.56 617.641785
29.58 605.713135
29.60 613.861389
29.62 637.345032
29.64 623.261475
29.66 616.563416
29.68 605.276733
29.70 608.750793
29.72 625.567139
29.74 615.722778
29.76 604.504333
29.78 611.105957
29.80 607.132629
29.82 606.828003
29.84 621.58429
29.86 613.973572
29.88 605.61084
29.90 608.13501
29.92 614.224731
29.94 618.588196
29.96 620.923035
29.98 636.45282
30.00 629.790527
30.02 615.283936
30.04 603.391846
30.06 600.37561
30.08 607.612915
30.10 625.065063
30.12 619.936462
30.14 615.925781
30.16 594.754883
30.18 613.657776
30.20 619.269104
30.22 590.870544
30.24 606.035828
30.26 604.122192
30.28 611.053894
30.30 618.224182
30.32 617.254456
30.34 619.805969
30.36 632.723267
30.38 636.521057
30.40 620.051208
30.42 624.424072
30.44 628.671509
30.46 604.866577
30.48 606.097839
30.50 621.149597
30.52 632.008484
30.54 636.827209
30.56 629.086182
30.58 609.302979
30.60 625.046204
30.62 625.070068
30.64 620.794128
30.66 618.521729
30.68 610.925964
30.70 602.717224
30.72 613.203613
30.74 610.707214
30.76 602.777527
30.78 597.480042
30.80 607.750793
30.82 600.835632
30.84 606.391479
30.86 614.713867
30.88 630.098755
30.90 627.601624
30.92 630.975281
30.94 623.680115
30.96 637.634583
30.98 644.077881
31.00 644.651611
31.02 638.37793
31.04 629.946777
31.06 635.471375
31.08 641.266479
31.10 658.293152
31.12 665.826355
31.14 650.44281
31.16 650.87384
31.18 660.90686
31.20 658.879883
31.22 653.09906
31.24 675.779297
31.26 674.69397
31.28 683.571106
31.30 684.126526
31.32 681.395752
31.34 677.875305
31.36 683.801025
31.38 686.446838
31.40 705.566467
31.42 686.183533
31.44 667.749573
31.46 649.342651
31.48 661.500488
31.50 653.46106
31.52 651.604126
31.54 650.964783
31.56 669.658447
31.58 650.324829
31.60 621.145203
31.62 629.441345
31.64 645.297546
31.66 643.180603
31.68 636.222595
31.70 648.783813
31.72 638.564026
31.74 643.378479
31.76 642.301514
31.78 621.667725
31.80 611.172485
31.82 621.540833
31.84 620.616394
31.86 638.24231
31.88 626.344116
31.90 608.957092
31.92 596.815552
31.94 605.001953
31.96 602.019531
31.98 614.007996
32.00 593.616516
32.02 591.130371
32.04 609.904785
32.06 594.095825
32.08 595.183716
32.10 587.138062
32.12 575.636963
32.14 571.748718
32.16 579.988647
32.18 578.163452
32.20 578.241577
32.22 584.253723
32.24 574.249268
32.26 566.269775
32.28 560.047363
32.30 561.891113
32.32 572.962952
32.34 560.491089
32.36 546.326233
32.38 559.157898
32.40 564.800964
32.42 572.239014
32.44 561.498535
32.46 546.273987
32.48 545.589233
32.50 555.574463
32.52 547.615662
32.54 543.74585
32.56 540.884521
32.58 553.941711
32.60 549.267761
32.62 537.62384
32.64 546.742737
32.66 549.305908
32.68 535.809875
32.70 543.797485
32.72 535.043518
32.74 539.156738
32.76 539.799133
32.78 535.64093
32.80 535.589111
32.82 525.684753
32.84 535.793152
32.86 544.573425
32.88 552.237793
32.90 556.942078
32.92 540.53717
32.94 534.013306
32.96 545.432373
32.98 536.322388
33.00 543.470337
33.02 529.831726
33.04 530.166992
33.06 529.97998
33.08 523.14856
33.10 519.535034
33.12 545.831482
33.14 542.651306
33.16 532.285645
33.18 546.778015
33.20 524.099487
33.22 529.363281
33.24 540.886108
33.26 530.743103
33.28 524.30896
33.30 532.840698
33.32 537.486389
33.34 520.997986
33.36 514.845459
33.38 533.735352
33.40 541.44928
33.42 531.423706
33.44 526.949158
33.46 514.884583
33.48 518.526917
33.50 512.337585
33.52 509.70166
33.54 513.595398
33.56 511.120087
33.58 503.591705
33.60 508.487091
33.62 515.656311
33.64 514.637939
33.66 518.362061
33.68 521.789856
33.70 518.655273
33.72 508.932922
33.74 490.962311
33.76 507.059937
33.78 509.700653
33.80 500.937317
33.82 508.049225
33.84 501.503876
33.86 505.258148
33.88 518.153809
33.90 512.211487
33.92 503.130981
33.94 500.85199
33.96 495.842316
33.98 502.186035
34.00 491.53714
34.02 507.791168
34.04 501.39624
34.06 510.64917
34.08 516.673279
34.10 505.09198
34.12 486.497162
34.14 491.114624
34.16 503.858124
34.18 498.386536
34.20 503.493286
34.22 496.766235
34.24 504.269989
34.26 493.16452
34.28 478.871429
34.30 480.369171
34.32 469.625
34.34 464.915344
34.36 477.445526
34.38 488.145538
34.40 492.278809
34.42 500.21463
34.44 490.243866
34.46 488.47644
34.48 489.983643
34.50 484.954193
34.52 495.370911
34.54 491.063171
34.56 488.709778
34.58 479.770142
34.60 495.842072
34.62 500.354004
34.64 490.904694
34.66 472.165771
34.68 485.132874
34.70 484.606995
34.72 487.478424
34.74 491.313568
34.76 499.781006
34.78 487.26825
34.80 488.196075
34.82 489.71344
34.84 489.239075
34.86 480.251678
34.88 508.33786
34.90 485.554413
34.92 478.826111
34.94 502.348755
34.96 510.369019
34.98 499.008575
35.00 494.210785
35.02 503.191467
35.04 492.934784
35.06 476.364044
35.08 479.799408
35.10 495.57373
35.12 512.203979
35.14 504.727112
35.16 502.520111
35.18 500.982849
35.20 511.15033
35.22 496.982452
35.24 474.06723
35.26 486.350067
35.28 486.765594
35.30 482.688995
35.32 479.791565
35.34 488.994171
35.36 478.521454
35.38 458.842041
35.40 450.09787
35.42 442.059082
35.44 438.400299
35.46 455.011658
35.48 455.69928
35.50 457.744843
35.52 451.348602
35.54 457.814941
35.56 454.587006
35.58 452.638245
35.60 449.016937
35.62 446.532135
35.64 446.296204
35.66 454.159424
35.68 444.489258
35.70 439.497498
35.72 441.838684
35.74 435.753754
35.76 429.974823
35.78 426.986206
35.80 439.157684
35.82 441.898132
35.84 424.876923
35.86 425.256622
35.88 421.741547
35.90 426.425232
35.92 415.818054
35.94 406.084656
35.96 416.511719
35.98 420.719147
36.00 431.312012
36.02 427.849609
36.04 424.989685
36.06 429.208435
36.08 420.218903
36.10 421.472992
36.12 416.339752
36.14 422.208801
36.16 415.06546
36.18 418.331512
36.20 437.126373
36.22 424.306641
36.24 417.157776
36.26 424.002045
36.28 406.638672
36.30 408.181824
36.32 404.425659
36.34 413.089691
36.36 418.323578
36.38 422.229309
36.40 417.559906
36.42 417.677795
36.44 417.309204
36.46 403.097565
36.48 395.776245
36.50 408.077881
36.52 421.183289
36.54 415.022095
36.56 404.007202
36.58 402.674866
36.60 389.507263
36.62 394.975342
36.64 402.458374
36.66 406.072998
36.68 408.655548
36.70 402.959198
36.72 405.442749
36.74 403.741821
36.76 411.943176
36.78 418.389191
36.80 402.170441
36.82 407.446991
36.84 398.9505
36.86 396.992401
36.88 388.469025
36.90 390.100342
36.92 380.780029
36.94 384.274841
36.96 380.466156
36.98 370.350861
37.00 377.771301
37.02 394.269318
37.04 389.47052
37.06 399.760132
37.08 396.114349
37.10 390.177948
37.12 381.203278
37.14 383.79364
37.16 379.851288
37.18 377.309662
37.20 400.444611
37.22 391.327942
37.24 365.179626
37.26 377.46698
37.28 376.255463
37.30 380.855957
37.32 381.18457
37.34 372.670166
37.36 380.259705
37.38 378.633575
37.40 384.625397
37.42 378.324585
37.44 376.61676
37.46 375.889191
37.48 372.858582
37.50 376.351837
37.52 383.672943
37.54 365.245575
37.56 365.928741
37.58 376.289001
37.60 378.531677
37.62 376.622711
37.64 367.330383
37.66 368.887207
37.68 373.040497
37.70 383.269745
37.72 367.442139
37.74 370.403503
37.76 369.000061
37.78 364.523102
37.80 360.939514
37.82 366.843597
37.84 363.095062
37.86 368.792053
37.88 378.764191
37.90 360.054474
37.92 367.894318
37.94 372.876038
37.96 369.361511
37.98 350.727966
38.00 358.259155
38.02 367.537354
38.04 360.569
38.06 372.07901
38.08 387.19873
38.10 383.573608
38.12 367.947998
38.14 360.657135
38.16 354.361725
38.18 360.617249
38.20 370.163727
38.22 367.582214
38.24 360.039154
38.26 359.893616
38.28 357.351379
38.30 366.671997
38.32 356.695709
38.34 363.20163
38.36 361.360229
38.38 351.838165
38.40 356.102448
38.42 357.50647
38.44 361.289307
38.46 370.071472
38.48 360.337494
38.50 373.116455
38.52 379.211884
38.54 364.253448
38.56 363.095795
38.58 371.793854
38.60 371.069672
38.62 359.446747
38.64 365.284576
38.66 364.921783
38.68 370.891541
38.70 365.799042
38.72 370.462585
38.74 364.465759
38.76 365.625854
38.78 366.510864
38.80 349.912994
38.82 347.08786
38.84 356.540619
38.86 353.341949
38.88 339.02597
38.90 348.546753
38.92 365.860382
38.94 362.501251
38.96 359.32489
38.98 344.631165
39.00 347.467255
39.02 356.029205
39.04 351.97049
39.06 358.514557
39.08 350.879791
39.10 352.836182
39.12 360.80246
39.14 348.613708
39.16 338.511749
39.18 333.37384
39.20 347.739624
39.22 349.688171
39.24 340.85611
39.26 350.840515
39.28 362.116028
39.30 347.054047
39.32 335.939514
39.34 335.998474
39.36 332.49472
39.38 338.837006
39.40 357.478729
39.42 344.421967
39.44 354.339233
39.46 360.144012
39.48 346.725311
39.50 347.049622
39.52 358.071381
39.54 349.826477
39.56 345.960754
39.58 343.200623
39.60 334.426422
39.62 342.949249
39.64 350.050842
39.66 351.646301
39.68 345.358917
39.70 350.677124
39.72 348.426971
39.74 347.129028
39.76 339.042816
39.78 330.690765
39.80 338.645691
39.82 347.534729
39.84 347.561066
39.86 340.881317
39.88 338.968018
39.90 342.657166
39.92 348.574707
39.94 338.094086
39.96 339.007446
39.98 337.651703
40.00 345.006195
