!@!!GADDS PLOTSO FILE: Chi integration type
!@!!Title/SampleName: ML_MAPbX3_chem16_longer
!@!!User: NREL
!@!!Site: NREL SERF C211; SN 2510
!@!!Frame: C:\frames\rbelisle\MLProject\081922_ML_MAPbX3_chem16_long_000_001.gfrm
!@!!Wavelengths    1.54184   1.54056   1.54439
!@!!Frame angles: 2Theta: 28.000 Omega: 5.000 Phi: 0.000 Chi: 90.000
!@!!Integration range: 2Theta: 10.000 to 40.000  Gamma: -135.000 to -45.000
!@!!Integration method: bin normalized
!@!N
!@!SS
!@!M
!@!L 0.0 0.0 0.0 0.0
!@!XDegrees
!@!YCounts
10.00 424.990173
10.02 419.325867
10.04 425.616119
10.06 414.760925
10.08 405.784546
10.10 420.587708
10.12 420.539459
10.14 413.014221
10.16 420.973999
10.18 427.050537
10.20 431.090637
10.22 424.321625
10.24 426.2341
10.26 433.251678
10.28 433.606201
10.30 431.460114
10.32 435.668854
10.34 440.179749
10.36 433.514465
10.38 436.952484
10.40 428.624359
10.42 445.064789
10.44 433.078369
10.46 443.489288
10.48 447.88736
10.50 441.340881
10.52 437.800964
10.54 441.827209
10.56 443.859985
10.58 438.900665
10.60 445.935455
10.62 445.999908
10.64 460.25412
10.66 458.097412
10.68 459.833008
10.70 453.224976
10.72 451.477692
10.74 452.615082
10.76 463.693787
10.78 466.831207
10.80 463.370331
10.82 473.328003
10.84 474.653046
10.86 470.977264
10.88 458.316071
10.90 453.524445
10.92 459.831085
10.94 472.481628
10.96 471.585236
10.98 470.320953
11.00 464.506744
11.02 463.457123
11.04 473.437164
11.06 479.876556
11.08 472.325562
11.10 480.891724
11.12 484.326996
11.14 480.61026
11.16 484.870911
11.18 480.209503
11.20 475.742798
11.22 488.289978
11.24 488.259613
11.26 497.684326
11.28 492.077881
11.30 489.497864
11.32 496.899963
11.34 503.112427
11.36 490.28418
11.38 484.308441
11.40 493.073761
11.42 500.575317
11.44 498.730774
11.46 487.728363
11.48 496.575928
11.50 510.617737
11.52 506.009247
11.54 508.197479
11.56 498.909393
11.58 511.113678
11.60 527.488159
11.62 518.299255
11.64 502.575256
11.66 508.950653
11.68 508.551514
11.70 510.269501
11.72 513.906677
11.74 528.008362
11.76 524.619934
11.78 527.206177
11.80 534.033386
11.82 532.600891
11.84 527.157349
11.86 538.204773
11.88 549.548889
11.90 528.232788
11.92 537.46106
11.94 535.60083
11.96 541.545044
11.98 542.843262
12.00 548.347168
12.02 548.681152
12.04 561.154419
12.06 562.351074
12.08 566.048157
12.10 564.669922
12.12 584.929382
12.14 590.022095
12.16 594.875671
12.18 598.438782
12.20 594.356812
12.22 597.692322
12.24 614.061523
12.26 610.486084
12.28 595.667419
12.30 600.129395
12.32 628.177795
12.34 640.732727
12.36 642.8078
12.38 656.194214
12.40 649.973206
12.42 660.872314
12.44 674.418274
12.46 676.343445
12.48 683.879395
12.50 697.046753
12.52 715.18457
12.54 715.2724
12.56 712.53302
12.58 717.41626
12.60 739.397461
12.62 727.538269
12.64 721.707703
12.66 723.05481
12.68 718.160645
12.70 707.863708
12.72 693.601746
12.74 692.250366
12.76 690.167114
12.78 684.979065
12.80 670.681702
12.82 653.044922
12.84 638.068542
12.86 638.328064
12.88 631.939636
12.90 626.705505
12.92 618.305603
12.94 624.27594
12.96 622.639832
12.98 628.318298
13.00 625.078674
13.02 610.648987
13.04 607.503479
13.06 602.435303
13.08 598.287964
13.10 599.736938
13.12 604.036011
13.14 594.015747
13.16 589.076843
13.18 589.986023
13.20 608.144775
13.22 604.758667
13.24 593.771301
13.26 597.671265
13.28 589.691467
13.30 598.025391
13.32 606.478088
13.34 599.007935
13.36 579.586487
13.38 584.889038
13.40 593.051392
13.42 594.901917
13.44 591.459351
13.46 608.315247
13.48 600.504822
13.50 594.718628
13.52 594.49884
13.54 613.100586
13.56 611.654907
13.58 611.14209
13.60 606.129944
13.62 609.04126
13.64 612.390198
13.66 613.534851
13.68 616.564636
13.70 614.562561
13.72 614.691284
13.74 610.875793
13.76 600.958862
13.78 604.694946
13.80 631.090942
13.82 628.56189
13.84 626.019958
13.86 623.480835
13.88 620.904114
13.90 631.006836
13.92 629.645386
13.94 632.055115
13.96 628.666687
13.98 644.421509
14.00 642.654297
14.02 645.293335
14.04 642.6828
14.06 649.954956
14.08 651.882935
14.10 658.898132
14.12 653.198975
14.14 654.953979
14.16 649.833801
14.18 643.2099
14.20 647.234497
14.22 653.66217
14.24 642.610596
14.26 643.11377
14.28 647.299194
14.30 646.065308
14.32 636.446472
14.34 636.246155
14.36 646.380615
14.38 645.674011
14.40 641.159973
14.42 642.280029
14.44 641.29303
14.46 648.754639
14.48 659.401672
14.50 648.440857
14.52 653.119812
14.54 647.567566
14.56 636.394348
14.58 653.172729
14.60 658.608276
14.62 654.506531
14.64 655.903687
14.66 662.886841
14.68 673.785217
14.70 686.55188
14.72 689.957214
14.74 701.174377
14.76 701.460632
14.78 704.635559
14.80 718.99231
14.82 720.399414
14.84 721.4646
14.86 744.229919
14.88 759.151672
14.90 786.726624
14.92 794.861023
14.94 796.814819
14.96 814.184753
14.98 825.62854
15.00 853.986084
15.02 872.989868
15.04 896.120972
15.06 922.542114
15.08 965.935791
15.10 991.455688
15.12 1030.24292
15.14 1072.047974
15.16 1115.22644
15.18 1153.077148
15.20 1212.235596
15.22 1258.537476
15.24 1311.4552
15.26 1389.129028
15.28 1441.210327
15.30 1466.085693
15.32 1523.463379
15.34 1592.877197
15.36 1624.604492
15.38 1656.414429
15.40 1683.998535
15.42 1670.318848
15.44 1640.565918
15.46 1593.86084
15.48 1547.244751
15.50 1475.973267
15.52 1397.906616
15.54 1340.935669
15.56 1259.601563
15.58 1175.830078
15.60 1107.955811
15.62 1052.168457
15.64 1003.868652
15.66 971.154907
15.68 938.761169
15.70 908.035522
15.72 879.241333
15.74 858.588379
15.76 817.00354
15.78 802.069336
15.80 807.56665
15.82 792.955078
15.84 787.071472
15.86 779.466064
15.88 773.309448
15.90 752.851013
15.92 736.825989
15.94 732.207153
15.96 741.314636
15.98 747.593994
16.00 733.652161
16.02 731.733887
16.04 717.038208
16.06 714.911377
16.08 710.090027
16.10 701.148254
16.12 703.387939
16.14 698.623413
16.16 700.144287
16.18 712.782593
16.20 713.546387
16.22 708.855774
16.24 703.648621
16.26 709.459045
16.28 705.316162
16.30 697.661011
16.32 708.146545
16.34 703.673828
16.36 694.305298
16.38 703.579834
16.40 700.545776
16.42 701.171082
16.44 706.128967
16.46 699.59375
16.48 704.354553
16.50 694.465271
16.52 700.648132
16.54 700.247803
16.56 710.457031
16.58 709.932434
16.60 703.946655
16.62 702.083984
16.64 708.397278
16.66 710.416382
16.68 692.889648
16.70 706.434448
16.72 712.117493
16.74 706.635986
16.76 708.710938
16.78 715.968506
16.80 717.064209
16.82 717.030579
16.84 711.655762
16.86 721.591187
16.88 716.130493
16.90 702.310791
16.92 699.653442
16.94 706.137756
16.96 722.375122
16.98 722.243713
17.00 728.836304
17.02 722.093323
17.04 705.371887
17.06 710.331909
17.08 719.72406
17.10 716.842224
17.12 720.174622
17.14 727.643372
17.16 723.158752
17.18 726.829834
17.20 731.300354
17.22 740.037903
17.24 736.886658
17.26 734.124939
17.28 729.520386
17.30 724.618469
17.32 723.680786
17.34 725.321533
17.36 733.306152
17.38 740.602112
17.40 743.078491
17.42 743.808777
17.44 746.965088
17.46 757.363403
17.48 749.853027
17.50 744.837891
17.52 752.420288
17.54 751.036926
17.56 753.895203
17.58 749.126343
17.60 751.1026
17.62 752.132202
17.64 764.218689
17.66 765.289734
17.68 757.346924
17.70 758.065796
17.72 762.24646
17.74 751.163452
17.76 753.522461
17.78 756.427551
17.80 767.643127
17.82 767.522339
17.84 780.071838
17.86 774.780945
17.88 779.211792
17.90 764.213501
17.92 763.735352
17.94 780.561035
17.96 783.643738
17.98 769.170715
18.00 771.806946
18.02 774.42749
18.04 772.347717
18.06 777.891663
18.08 784.997803
18.10 790.864258
18.12 791.92865
18.14 790.390686
18.16 782.832092
18.18 801.209839
18.20 812.531677
18.22 810.915588
18.24 804.142273
18.26 802.217834
18.28 804.617981
18.30 806.054382
18.32 804.828186
18.34 801.841064
18.36 809.334534
18.38 804.851501
18.40 801.793152
18.42 810.674255
18.44 821.257141
18.46 830.949585
18.48 821.138855
18.50 821.123352
18.52 812.97522
18.54 826.0047
18.56 817.442749
18.58 816.813354
18.60 829.267517
18.62 825.842346
18.64 825.235596
18.66 818.324829
18.68 833.199951
18.70 839.85376
18.72 822.318359
18.74 828.835693
18.76 839.389038
18.78 824.990723
18.80 834.244995
18.82 833.526428
18.84 850.345032
18.86 851.119629
18.88 847.416199
18.90 854.957825
18.92 856.41394
18.94 856.703491
18.96 858.880859
18.98 859.246338
19.00 858.004333
19.02 861.667908
19.04 861.102661
19.06 870.112732
19.08 868.150696
19.10 877.329773
19.12 883.712708
19.14 883.500244
19.16 878.812561
19.18 876.623901
19.20 872.281128
19.22 872.030823
19.24 877.776306
19.26 885.009155
19.28 885.035767
19.30 888.639038
19.32 894.399597
19.34 893.438965
19.36 891.397888
19.38 885.098267
19.40 873.245483
19.42 876.682861
19.44 885.669678
19.46 891.689819
19.48 894.103516
19.50 901.575989
19.52 912.612671
19.54 909.636536
19.56 915.188354
19.58 923.777649
19.60 913.143799
19.62 894.844604
19.64 902.929932
19.66 912.050476
19.68 920.225403
19.70 922.485535
19.72 929.751587
19.74 937.425659
19.76 933.239868
19.78 922.648865
19.80 930.443115
19.82 939.045654
19.84 932.613953
19.86 951.201416
19.88 962.364685
19.90 964.931641
19.92 962.68396
19.94 943.30011
19.96 947.505249
19.98 950.023438
20.00 944.445618
20.02 942.704407
20.04 945.44873
20.06 944.211731
20.08 963.486694
20.10 968.624268
20.12 960.14801
20.14 959.577148
20.16 965.321045
20.18 974.356262
20.20 981.922791
20.22 982.372009
20.24 982.984741
20.26 983.2276
20.28 981.956055
20.30 983.776001
20.32 991.580078
20.34 984.214111
20.36 973.46637
20.38 991.462158
20.40 990.670532
20.42 983.488098
20.44 980.371338
20.46 981.260864
20.48 987.02478
20.50 1011.417786
20.52 1016.597595
20.54 993.696167
20.56 995.800232
20.58 992.142151
20.60 998.843445
20.62 1005.420715
20.64 996.104187
20.66 1002.130371
20.68 1024.026123
20.70 1028.404419
20.72 1024.474365
20.74 1026.354492
20.76 1026.664063
20.78 1019.676758
20.80 1019.733154
20.82 1020.673645
20.84 1030.394409
20.86 1043.589233
20.88 1057.287354
20.90 1051.225098
20.92 1042.292603
20.94 1047.677612
20.96 1048.18689
20.98 1049.575317
21.00 1055.30603
21.02 1059.421509
21.04 1048.622314
21.06 1054.505493
21.08 1068.813843
21.10 1077.56665
21.12 1067.865356
21.14 1068.880493
21.16 1070.44751
21.18 1060.615967
21.20 1074.969604
21.22 1083.546143
21.24 1091.680298
21.26 1104.654907
21.28 1110.021484
21.30 1087.500122
21.32 1092.652222
21.34 1098.125366
21.36 1105.707886
21.38 1101.952026
21.40 1095.377197
21.42 1112.933472
21.44 1128.910034
21.46 1124.927002
21.48 1147.862061
21.50 1144.465698
21.52 1140.330322
21.54 1141.395996
21.56 1140.950806
21.58 1157.79834
21.60 1151.751465
21.62 1163.511597
21.64 1172.293579
21.66 1174.59082
21.68 1179.137939
21.70 1173.348755
21.72 1182.392334
21.74 1185.83606
21.76 1182.434692
21.78 1185.468872
21.80 1192.427002
21.82 1181.943359
21.84 1179.90979
21.86 1187.059326
21.88 1186.71875
21.90 1193.285767
21.92 1191.495361
21.94 1181.135132
21.96 1176.247925
21.98 1174.805664
22.00 1182.973022
22.02 1186.317261
22.04 1184.573486
22.06 1173.387085
22.08 1170.516602
22.10 1181.890625
22.12 1179.717407
22.14 1173.692993
22.16 1171.080933
22.18 1177.274658
22.20 1178.713989
22.22 1162.874023
22.24 1165.233032
22.26 1165.738892
22.28 1172.978149
22.30 1178.052246
22.32 1172.690186
22.34 1172.856201
22.36 1156.740356
22.38 1169.75708
22.40 1172.020752
22.42 1175.80957
22.44 1174.002808
22.46 1180.835938
22.48 1188.207397
22.50 1184.293579
22.52 1181.169922
22.54 1181.733276
22.56 1190.536255
22.58 1193.708496
22.60 1197.836182
22.62 1198.300415
22.64 1192.125122
22.66 1192.94519
22.68 1185.974731
22.70 1191.915649
22.72 1202.327148
22.74 1197.761841
22.76 1203.259277
22.78 1197.097534
22.80 1196.098267
22.82 1210.390259
22.84 1210.000244
22.86 1208.587036
22.88 1205.773315
22.90 1203.462158
22.92 1209.424683
22.94 1214.725464
22.96 1216.046631
22.98 1208.925293
23.00 1208.789551
23.02 1213.181641
23.04 1210.687988
23.06 1224.10144
23.08 1231.864502
23.10 1220.487061
23.12 1198.333496
23.14 1209.04895
23.16 1209.988647
23.18 1203.98584
23.20 1209.790894
23.22 1204.87561
23.24 1204.418335
23.26 1225.507202
23.28 1221.957275
23.30 1225.035156
23.32 1226.40979
23.34 1228.549805
23.36 1223.716553
23.38 1215.168823
23.40 1220.019897
23.42 1218.156372
23.44 1216.402466
23.46 1218.046387
23.48 1220.42041
23.50 1236.078369
23.52 1224.800293
23.54 1222.395752
23.56 1214.345947
23.58 1226.542236
23.60 1227.935303
23.62 1219.27478
23.64 1228.975464
23.66 1232.774536
23.68 1235.681519
23.70 1237.845703
23.72 1229.834473
23.74 1233.761475
23.76 1246.22876
23.78 1251.709595
23.80 1235.449097
23.82 1239.994263
23.84 1240.021362
23.86 1238.990356
23.88 1246.543701
23.90 1249.341797
23.92 1247.293701
23.94 1234.890259
23.96 1240.926392
23.98 1250.511475
24.00 1248.696167
24.02 1244.594727
24.04 1245.805664
24.06 1240.930542
24.08 1246.952393
24.10 1255.175171
24.12 1251.464111
24.14 1252.358032
24.16 1247.603027
24.18 1251.424561
24.20 1250.438477
24.22 1242.46582
24.24 1242.988281
24.26 1254.164307
24.28 1260.187744
24.30 1248.334595
24.32 1244.777954
24.34 1256.995239
24.36 1253.319946
24.38 1257.426636
24.40 1262.911865
24.42 1262.326416
24.44 1257.922241
24.46 1248.283691
24.48 1245.207764
24.50 1258.782471
24.52 1260.682861
24.54 1257.747314
24.56 1258.899292
24.58 1258.839844
24.60 1247.137451
24.62 1250.44751
24.64 1255.976074
24.66 1261.648804
24.68 1254.440552
24.70 1254.967163
24.72 1266.560303
24.74 1262.392334
24.76 1259.491333
24.78 1265.601807
24.80 1261.734985
24.82 1264.224365
24.84 1254.005249
24.86 1252.947266
24.88 1258.885742
24.90 1266.342041
24.92 1275.739136
24.94 1265.35083
24.96 1251.081177
24.98 1255.930786
25.00 1266.290771
25.02 1266.517456
25.04 1261.654785
25.06 1258.228516
25.08 1259.639038
25.10 1263.953735
25.12 1270.29187
25.14 1274.847168
25.16 1264.800659
25.18 1267.937378
25.20 1276.702637
25.22 1274.634155
25.24 1274.090942
25.26 1274.769653
25.28 1277.15271
25.30 1272.399536
25.32 1268.081055
25.34 1271.966064
25.36 1277.908447
25.38 1264.541138
25.40 1269.547974
25.42 1276.482422
25.44 1284.175171
25.46 1289.362305
25.48 1275.024292
25.50 1281.466553
25.52 1265.636963
25.54 1271.119629
25.56 1285.582642
25.58 1282.745483
25.60 1277.650269
25.62 1285.738281
25.64 1280.253418
25.66 1272.255249
25.68 1262.192261
25.70 1257.785889
25.72 1273.69043
25.74 1281.919434
25.76 1278.405762
25.78 1275.025513
25.80 1270.389404
25.82 1266.646851
25.84 1260.399536
25.86 1269.534424
25.88 1286.609253
25.90 1283.346069
25.92 1275.103516
25.94 1262.196899
25.96 1273.234131
25.98 1264.966919
26.00 1270.005981
26.02 1282.167114
26.04 1288.762451
26.06 1282.306152
26.08 1278.984375
26.10 1266.509644
26.12 1266.969238
26.14 1263.655273
26.16 1267.830811
26.18 1265.969116
26.20 1266.521484
26.22 1266.692871
26.24 1265.580444
26.26 1264.027344
26.28 1268.789429
26.30 1267.591064
26.32 1266.942871
26.34 1259.877075
26.36 1256.434448
26.38 1268.662842
26.40 1272.905762
26.42 1270.123901
26.44 1264.179199
26.46 1268.175171
26.48 1263.911499
26.50 1263.720215
26.52 1265.899414
26.54 1259.583496
26.56 1266.193726
26.58 1269.184448
26.60 1261.613892
26.62 1266.162354
26.64 1265.244507
26.66 1253.210693
26.68 1249.98877
26.70 1265.575317
26.72 1259.198975
26.74 1258.494019
26.76 1262.480713
26.78 1261.587402
26.80 1264.509277
26.82 1269.40332
26.84 1261.121582
26.86 1256.68103
26.88 1251.319824
26.90 1245.351807
26.92 1247.193359
26.94 1253.362549
26.96 1258.274292
26.98 1254.406738
27.00 1266.590942
27.02 1257.464844
27.04 1254.081055
27.06 1255.374023
27.08 1250.981567
27.10 1245.684814
27.12 1243.366943
27.14 1244.859741
27.16 1235.37207
27.18 1243.938843
27.20 1253.229004
27.22 1251.93396
27.24 1257.781494
27.26 1250.352173
27.28 1253.117676
27.30 1252.113892
27.32 1245.005249
27.34 1247.003052
27.36 1249.380737
27.38 1244.135742
27.40 1240.900757
27.42 1255.59082
27.44 1247.478027
27.46 1245.341919
27.48 1252.932495
27.50 1244.749146
27.52 1249.044434
27.54 1247.49292
27.56 1239.98645
27.58 1239.538696
27.60 1239.994751
27.62 1233.008057
27.64 1243.807007
27.66 1245.641968
27.68 1239.88623
27.70 1245.698608
27.72 1259.286011
27.74 1256.761597
27.76 1237.477661
27.78 1228.419556
27.80 1236.765015
27.82 1238.11731
27.84 1237.981812
27.86 1243.37085
27.88 1241.659668
27.90 1228.42688
27.92 1233.756958
27.94 1234.679321
27.96 1246.638672
27.98 1245.641479
28.00 1244.083496
28.02 1226.552734
28.04 1228.030884
28.06 1235.408447
28.08 1227.698364
28.10 1233.047119
28.12 1242.195313
28.14 1229.612061
28.16 1240.554321
28.18 1246.947998
28.20 1239.162231
28.22 1235.271606
28.24 1235.597656
28.26 1229.050415
28.28 1232.500244
28.30 1230.555542
28.32 1230.261353
28.34 1239.166382
28.36 1242.645142
28.38 1230.668701
28.40 1227.513916
28.42 1233.064087
28.44 1222.569336
28.46 1228.309326
28.48 1243.715698
28.50 1230.623047
28.52 1231.483276
28.54 1243.019775
28.56 1242.908691
28.58 1242.47644
28.60 1248.525269
28.62 1241.134766
28.64 1228.768066
28.66 1222.04541
28.68 1214.853149
28.70 1220.602051
28.72 1225.63208
28.74 1219.333618
28.76 1210.329224
28.78 1221.3927
28.80 1220.316284
28.82 1230.59729
28.84 1223.012939
28.86 1210.273926
28.88 1215.424561
28.90 1207.027588
28.92 1210.03186
28.94 1207.518555
28.96 1200.925537
28.98 1195.783081
29.00 1192.835205
29.02 1199.642944
29.04 1206.088013
29.06 1209.080566
29.08 1201.690308
29.10 1203.858521
29.12 1202.771851
29.14 1198.637085
29.16 1194.027222
29.18 1200.172119
29.20 1211.489746
29.22 1189.913086
29.24 1184.53833
29.26 1180.258179
29.28 1194.13501
29.30 1201.511108
29.32 1202.059082
29.34 1209.34021
29.36 1193.97583
29.38 1179.210449
29.40 1180.115356
29.42 1184.056885
29.44 1197.453125
29.46 1195.956299
29.48 1192.606445
29.50 1188.720459
29.52 1183.642822
29.54 1178.305542
29.56 1185.444458
29.58 1183.437256
29.60 1182.602661
29.62 1186.572021
29.64 1188.34021
29.66 1193.831787
29.68 1183.770996
29.70 1172.576294
29.72 1174.425903
29.74 1176.048706
29.76 1173.659912
29.78 1176.676514
29.80 1172.148315
29.82 1178.831055
29.84 1181.948975
29.86 1187.015259
29.88 1174.507446
29.90 1178.328125
29.92 1177.516113
29.94 1182.30835
29.96 1169.395386
29.98 1174.766113
30.00 1165.31958
30.02 1155.339844
30.04 1161.141113
30.06 1172.886108
30.08 1165.821655
30.10 1164.677856
30.12 1165.513916
30.14 1179.610107
30.16 1169.215088
30.18 1162.115234
30.20 1155.406616
30.22 1153.322998
30.24 1157.747681
30.26 1155.01001
30.28 1160.944702
30.30 1162.908325
30.32 1161.427002
30.34 1151.062378
30.36 1156.776245
30.38 1168.418091
30.40 1168.274658
30.42 1163.21167
30.44 1162.95459
30.46 1163.852173
30.48 1161.650146
30.50 1162.723877
30.52 1162.785767
30.54 1165.799561
30.56 1151.840088
30.58 1144.087891
30.60 1140.928711
30.62 1146.072632
30.64 1150.977051
30.66 1151.677612
30.68 1142.318481
30.70 1165.630737
30.72 1167.029541
30.74 1168.605957
30.76 1177.908447
30.78 1190.754639
30.80 1188.927612
30.82 1196.266357
30.84 1198.605957
30.86 1201.806519
30.88 1211.875977
30.90 1212.022217
30.92 1235.940063
30.94 1253.623169
30.96 1267.88916
30.98 1291.200806
31.00 1311.401367
31.02 1321.998779
31.04 1343.432983
31.06 1353.058228
31.08 1359.800903
31.10 1365.845337
31.12 1370.720093
31.14 1386.342041
31.16 1386.42981
31.18 1370.428223
31.20 1353.620483
31.22 1332.586304
31.24 1303.581665
31.26 1283.512817
31.28 1270.257446
31.30 1258.878662
31.32 1236.730591
31.34 1206.140381
31.36 1190.580322
31.38 1172.55896
31.40 1153.851685
31.42 1143.0448
31.44 1138.160278
31.46 1134.260742
31.48 1120.359985
31.50 1115.535889
31.52 1117.330688
31.54 1114.198486
31.56 1099.818726
31.58 1088.58606
31.60 1086.038574
31.62 1083.021362
31.64 1087.205688
31.66 1087.718018
31.68 1092.185669
31.70 1085.077515
31.72 1075.008667
31.74 1069.44397
31.76 1080.810791
31.78 1081.408569
31.80 1075.794678
31.82 1082.318481
31.84 1072.209106
31.86 1068.156372
31.88 1069.968872
31.90 1071.205566
31.92 1066.357056
31.94 1063.079834
31.96 1058.337402
31.98 1062.327026
32.00 1051.478149
32.02 1054.747437
32.04 1057.974731
32.06 1063.590454
32.08 1054.724976
32.10 1050.719727
32.12 1047.458252
32.14 1054.677124
32.16 1042.814819
32.18 1039.073975
32.20 1054.989136
32.22 1049.619995
32.24 1044.054688
32.26 1048.799438
32.28 1060.81897
32.30 1053.174438
32.32 1044.251831
32.34 1046.735962
32.36 1042.585571
32.38 1041.599365
32.40 1028.539551
32.42 1025.364868
32.44 1029.807495
32.46 1029.263428
32.48 1035.688843
32.50 1032.374146
32.52 1029.42041
32.54 1029.62146
32.56 1025.737061
32.58 1026.228149
32.60 1024.952515
32.62 1030.280518
32.64 1033.147827
32.66 1023.623962
32.68 1018.880432
32.70 1018.944763
32.72 1020.133728
32.74 1024.324097
32.76 1021.840881
32.78 1013.670044
32.80 1010.723145
32.82 1025.398926
32.84 1013.947754
32.86 1003.990723
32.88 1007.893433
32.90 1012.11438
32.92 1007.620605
32.94 992.576416
32.96 1000.621948
32.98 1002.547974
33.00 1005.565979
33.02 1000.244446
33.04 997.647095
33.06 1002.292542
33.08 999.695251
33.10 991.037415
33.12 990.323059
33.14 999.162598
33.16 997.856262
33.18 991.304016
33.20 994.158447
33.22 995.788879
33.24 991.588806
33.26 994.098694
33.28 989.26532
33.30 991.605957
33.32 1001.341553
33.34 999.947083
33.36 989.831665
33.38 993.637634
33.40 987.350159
33.42 980.750305
33.44 982.655518
33.46 989.659729
33.48 993.187317
33.50 982.915039
33.52 979.301025
33.54 966.519104
33.56 972.970032
33.58 978.693665
33.60 972.700439
33.62 974.309814
33.64 983.201904
33.66 982.889648
33.68 985.567383
33.70 972.4422
33.72 967.793945
33.74 970.323608
33.76 968.366394
33.78 965.594543
33.80 961.762451
33.82 958.817871
33.84 959.993103
33.86 963.384521
33.88 961.399292
33.90 965.400024
33.92 963.142883
33.94 959.991028
33.96 967.160095
33.98 961.624268
34.00 956.936096
34.02 958.900146
34.04 958.074341
34.06 956.132019
34.08 963.733643
34.10 958.290955
34.12 947.274658
34.14 952.319763
34.16 960.335205
34.18 950.033386
34.20 960.035156
34.22 967.126526
34.24 958.186035
34.26 956.534424
34.28 961.577087
34.30 962.308594
34.32 961.263611
34.34 955.608215
34.36 959.835938
34.38 959.498047
34.40 949.138611
34.42 950.915527
34.44 962.216614
34.46 971.786743
34.48 975.235901
34.50 961.17749
34.52 970.010071
34.54 975.665466
34.56 978.40448
34.58 978.317444
34.60 980.571472
34.62 993.120728
34.64 1005.236145
34.66 996.645752
34.68 992.796509
34.70 991.886353
34.72 992.778137
34.74 1001.135925
34.76 993.368896
34.78 996.257996
34.80 1002.734802
34.82 1001.916626
34.84 1008.090698
34.86 1003.818298
34.88 1000.27301
34.90 1013.860718
34.92 1008.700562
34.94 996.627686
34.96 992.286194
34.98 990.996216
35.00 982.9104
35.02 982.504944
35.04 974.960999
35.06 972.646973
35.08 968.127991
35.10 968.952271
35.12 964.469543
35.14 958.018433
35.16 948.654724
35.18 948.968018
35.20 946.466248
35.22 946.727661
35.24 947.619385
35.26 939.991272
35.28 926.19519
35.30 912.265076
35.32 903.035522
35.34 905.05481
35.36 900.507446
35.38 898.797546
35.40 887.808899
35.42 885.090576
35.44 892.492188
35.46 880.874939
35.48 883.952393
35.50 888.977905
35.52 880.469482
35.54 863.183533
35.56 861.788147
35.58 863.837585
35.60 858.469299
35.62 852.715332
35.64 854.197083
35.66 855.870361
35.68 848.029907
35.70 840.107971
35.72 840.177063
35.74 839.120728
35.76 840.683716
35.78 841.049316
35.80 838.827271
35.82 843.203125
35.84 836.686768
35.86 831.985596
35.88 827.516113
35.90 818.448364
35.92 819.450439
35.94 837.192566
35.96 829.634766
35.98 818.305969
36.00 815.077087
36.02 820.883423
36.04 822.335693
36.06 811.56012
36.08 819.839722
36.10 818.351685
36.12 813.740601
36.14 808.680298
36.16 810.045166
36.18 810.356995
36.20 808.662048
36.22 811.646606
36.24 806.822388
36.26 805.16803
36.28 804.692932
36.30 792.429199
36.32 788.195374
36.34 794.433899
36.36 798.999878
36.38 794.591003
36.40 789.12854
36.42 786.151855
36.44 777.494385
36.46 777.659668
36.48 787.537231
36.50 796.31073
36.52 800.633972
36.54 796.836853
36.56 785.66333
36.58 777.460938
36.60 784.257141
36.62 783.701477
36.64 774.973572
36.66 768.055298
36.68 771.801086
36.70 770.68158
36.72 771.857605
36.74 766.674866
36.76 769.721008
36.78 768.884766
36.80 764.440979
36.82 765.714722
36.84 767.577637
36.86 764.921936
36.88 754.830017
36.90 754.107056
36.92 759.662842
36.94 761.125061
36.96 748.603149
36.98 747.827209
37.00 749.252869
37.02 751.410278
37.04 745.843628
37.06 747.641113
37.08 746.921692
37.10 753.914246
37.12 747.021545
37.14 747.501465
37.16 744.122009
37.18 747.806458
37.20 740.063965
37.22 739.324219
37.24 749.556641
37.26 744.385803
37.28 740.509827
37.30 740.330261
37.32 739.50769
37.34 739.000549
37.36 744.310425
37.38 735.607483
37.40 739.549927
37.42 734.774231
37.44 728.580078
37.46 722.995728
37.48 730.178345
37.50 730.425049
37.52 728.01886
37.54 732.025696
37.56 732.133301
37.58 739.248169
37.60 739.60083
37.62 732.122864
37.64 722.436096
37.66 724.236389
37.68 724.511902
37.70 726.556519
37.72 733.494751
37.74 730.882324
37.76 732.532715
37.78 734.328186
37.80 726.610962
37.82 728.157288
37.84 729.740906
37.86 719.007263
37.88 714.821594
37.90 715.692139
37.92 716.877197
37.94 719.928833
37.96 722.300842
37.98 732.688232
38.00 728.873779
38.02 717.875671
38.04 717.58136
38.06 715.374512
38.08 714.495972
38.10 721.666687
38.12 718.459351
38.14 725.583679
38.16 723.611206
38.18 731.118408
38.20 723.39563
38.22 724.216858
38.24 724.561462
38.26 729.925049
38.28 729.018311
38.30 729.609497
38.32 727.914917
38.34 719.035767
38.36 714.381836
38.38 711.820068
38.40 719.343872
38.42 733.369629
38.44 724.715332
38.46 720.856201
38.48 722.583862
38.50 719.292419
38.52 713.852966
38.54 720.880005
38.56 718.070129
38.58 711.40155
38.60 702.913574
38.62 702.292175
38.64 702.013611
38.66 707.829407
38.68 704.978516
38.70 702.479492
38.72 704.208923
38.74 708.438293
38.76 697.501648
38.78 696.794128
38.80 695.446533
38.82 693.544678
38.84 684.355652
38.86 681.407959
38.88 685.784363
38.90 680.680359
38.92 676.708313
38.94 680.166992
38.96 674.846558
38.98 676.984924
39.00 687.538452
39.02 676.973816
39.04 678.737
39.06 674.301819
39.08 670.93158
39.10 677.408447
39.12 672.545227
39.14 667.76825
39.16 670.712219
39.18 676.083557
39.20 676.708801
39.22 677.175903
39.24 669.864319
39.26 671.185791
39.28 673.34729
39.30 676.659302
39.32 676.775452
39.34 674.127258
39.36 669.475342
39.38 677.899902
39.40 683.016235
39.42 671.618103
39.44 669.359924
39.46 675.214294
39.48 668.357849
39.50 665.753296
39.52 668.541748
39.54 664.919006
39.56 663.359924
39.58 667.307434
39.60 668.752808
39.62 660.481628
39.64 659.460571
39.66 661.481384
39.68 659.130554
39.70 657.519592
39.72 658.805054
39.74 662.10968
39.76 659.281738
39.78 650.034851
39.80 648.049377
39.82 649.900757
39.84 653.023621
39.86 647.478821
39.88 642.788269
39.90 637.760132
39.92 647.056763
39.94 638.210754
39.96 633.782898
39.98 634.997314
40.00 642.662292
