!@!!GADDS PLOTSO FILE: Chi integration type
!@!!Title/SampleName: ML_MAPbX3
!@!!User: NREL
!@!!Site: NREL SERF C211; SN 2510
!@!!Frame: C:\frames\rbelisle\MLProject\081022_MLProject_000_004.gfrm
!@!!Wavelengths    1.54184   1.54056   1.54439
!@!!Frame angles: 2Theta: 28.000 Omega: 5.000 Phi: 0.000 Chi: 90.000
!@!!Integration range: 2Theta: 10.000 to 40.000  Gamma: -130.100 to -50.000
!@!!Integration method: bin normalized
!@!N
!@!SS
!@!M
!@!L 0.0 0.0 0.0 0.0
!@!XDegrees
!@!YCounts
10.00 121.034485
10.02 117.975304
10.04 113.393074
10.06 116.216461
10.08 111.613281
10.10 110.347366
10.12 123.594131
10.14 125.227768
10.16 124.815781
10.18 120.446609
10.20 119.319458
10.22 116.657097
10.24 116.865112
10.26 118.094368
10.28 118.032913
10.30 118.775139
10.32 119.444687
10.34 117.735794
10.36 115.228065
10.38 113.071915
10.40 119.883629
10.42 119.443893
10.44 120.699074
10.46 117.884743
10.48 119.292076
10.50 120.634636
10.52 121.228355
10.54 122.386307
10.56 124.863075
10.58 119.629768
10.60 124.929459
10.62 132.950653
10.64 125.524895
10.66 128.258499
10.68 128.282639
10.70 134.936188
10.72 127.324371
10.74 128.685135
10.76 122.852486
10.78 126.003372
10.80 122.267677
10.82 126.886269
10.84 130.952988
10.86 131.720367
10.88 126.672478
10.90 125.855042
10.92 132.309677
10.94 134.114838
10.96 132.383224
10.98 128.357849
11.00 122.069832
11.02 130.327606
11.04 128.053574
11.06 125.303574
11.08 128.285995
11.10 130.352966
11.12 127.415268
11.14 127.086555
11.16 125.834427
11.18 130.596954
11.20 125.60524
11.22 125.787666
11.24 123.080948
11.26 125.680138
11.28 134.330521
11.30 133.376053
11.32 129.853317
11.34 134.262756
11.36 132.842773
11.38 133.106918
11.40 132.241104
11.42 132.071732
11.44 138.084122
11.46 137.575027
11.48 131.955917
11.50 132.24321
11.52 137.526611
11.54 137.96199
11.56 133.091995
11.58 129.560181
11.60 131.050323
11.62 134.175766
11.64 136.124847
11.66 135.366699
11.68 132.237595
11.70 141.042999
11.72 133.992798
11.74 128.578445
11.76 128.946503
11.78 126.308235
11.80 130.370178
11.82 136.852036
11.84 137.059891
11.86 141.182129
11.88 144.233154
11.90 135.423355
11.92 135.570724
11.94 136.464066
11.96 132.850616
11.98 134.594009
12.00 139.408112
12.02 142.007904
12.04 144.369705
12.06 143.102615
12.08 142.950409
12.10 144.49585
12.12 146.125931
12.14 146.516769
12.16 144.210648
12.18 143.77594
12.20 149.01857
12.22 155.787994
12.24 158.997925
12.26 154.383011
12.28 153.379974
12.30 147.607086
12.32 145.195038
12.34 154.552475
12.36 159.880219
12.38 160.719299
12.40 156.833939
12.42 164.12677
12.44 158.524231
12.46 160.956894
12.48 158.648804
12.50 164.979736
12.52 163.550354
12.54 165.608047
12.56 167.514679
12.58 167.531982
12.60 169.052307
12.62 172.753754
12.64 169.64859
12.66 163.053818
12.68 165.411697
12.70 154.220078
12.72 159.695999
12.74 165.564606
12.76 163.542511
12.78 159.950348
12.80 167.126816
12.82 158.330231
12.84 162.051086
12.86 160.486221
12.88 149.318314
12.90 146.94693
12.92 152.86412
12.94 146.978882
12.96 149.966507
12.98 148.454895
13.00 150.877274
13.02 149.745636
13.04 148.061981
13.06 149.991364
13.08 146.803909
13.10 147.658859
13.12 141.849594
13.14 148.99765
13.16 154.066971
13.18 152.180496
13.20 151.431488
13.22 147.631134
13.24 147.525757
13.26 148.933655
13.28 154.620987
13.30 153.986191
13.32 154.349884
13.34 159.122177
13.36 159.759018
13.38 160.22699
13.40 153.896149
13.42 162.032211
13.44 166.941498
13.46 164.059662
13.48 162.70784
13.50 164.906097
13.52 170.133698
13.54 169.480438
13.56 164.362488
13.58 174.9263
13.60 177.220154
13.62 182.133698
13.64 184.74411
13.66 186.265259
13.68 189.938965
13.70 196.389313
13.72 194.901062
13.74 203.941238
13.76 216.447342
13.78 219.586853
13.80 226.351181
13.82 228.086823
13.84 239.625916
13.86 248.239212
13.88 262.430054
13.90 274.146362
13.92 281.078766
13.94 295.069519
13.96 300.09549
13.98 309.337158
14.00 331.791351
14.02 326.385529
14.04 340.340271
14.06 351.143829
14.08 361.092224
14.10 362.482666
14.12 370.346283
14.14 373.029175
14.16 380.594574
14.18 369.607422
14.20 362.612091
14.22 360.952637
14.24 340.945282
14.26 332.430359
14.28 323.288696
14.30 305.757813
14.32 282.715179
14.34 272.594635
14.36 262.796478
14.38 254.968826
14.40 240.133377
14.42 223.934021
14.44 212.65773
14.46 207.638641
14.48 199.858994
14.50 204.565933
14.52 198.331635
14.54 188.529861
14.56 182.805252
14.58 182.045212
14.60 182.520889
14.62 178.567795
14.64 176.631668
14.66 176.043152
14.68 170.639755
14.70 164.513351
14.72 168.291748
14.74 171.005035
14.76 165.719589
14.78 166.585037
14.80 166.926422
14.82 169.066147
14.84 165.587662
14.86 162.869141
14.88 166.796951
14.90 167.411407
14.92 157.107056
14.94 164.465652
14.96 163.326797
14.98 162.072952
15.00 164.017609
15.02 163.729568
15.04 166.247849
15.06 161.04982
15.08 165.445526
15.10 166.212173
15.12 168.873688
15.14 168.388931
15.16 168.69162
15.18 167.99765
15.20 163.275238
15.22 163.436172
15.24 161.186768
15.26 161.818771
15.28 164.582108
15.30 170.210281
15.32 164.756042
15.34 159.254745
15.36 158.166779
15.38 165.986755
15.40 176.249115
15.42 172.462509
15.44 172.816101
15.46 169.238525
15.48 171.599426
15.50 170.235336
15.52 167.08432
15.54 171.118576
15.56 172.182419
15.58 173.287003
15.60 172.146835
15.62 163.954971
15.64 159.408539
15.66 165.640533
15.68 169.268906
15.70 172.986053
15.72 167.349869
15.74 170.208328
15.76 169.274948
15.78 169.203003
15.80 173.534897
15.82 160.165298
15.84 163.122055
15.86 172.535614
15.88 177.75856
15.90 180.573517
15.92 173.787567
15.94 163.997131
15.96 169.240799
15.98 174.39328
16.00 173.786133
16.02 169.043579
16.04 175.67334
16.06 177.611511
16.08 178.433289
16.10 175.840179
16.12 177.169342
16.14 176.835876
16.16 174.069275
16.18 175.853592
16.20 176.303894
16.22 173.889343
16.24 178.506119
16.26 181.687134
16.28 178.216614
16.30 173.058075
16.32 174.369675
16.34 176.657745
16.36 176.273712
16.38 180.96283
16.40 172.446609
16.42 177.94519
16.44 176.386627
16.46 179.174728
16.48 173.31163
16.50 175.976791
16.52 176.407791
16.54 185.872467
16.56 184.909576
16.58 180.324249
16.60 182.192978
16.62 178.449142
16.64 175.701782
16.66 182.554703
16.68 180.413208
16.70 180.804443
16.72 179.107468
16.74 178.243546
16.76 179.381378
16.78 185.108368
16.80 180.228958
16.82 179.159378
16.84 183.528137
16.86 176.870377
16.88 182.527054
16.90 183.576172
16.92 178.343887
16.94 181.705597
16.96 185.787582
16.98 183.517624
17.00 179.143921
17.02 176.080154
17.04 179.825394
17.06 180.88443
17.08 182.622116
17.10 180.287689
17.12 185.784454
17.14 183.249329
17.16 182.60675
17.18 177.785431
17.20 184.168854
17.22 181.519272
17.24 183.597824
17.26 197.521835
17.28 193.930328
17.30 188.651459
17.32 190.296585
17.34 184.901779
17.36 185.553116
17.38 190.433456
17.40 188.592606
17.42 179.400558
17.44 185.612915
17.46 186.405457
17.48 192.31337
17.50 191.295792
17.52 192.263077
17.54 194.851913
17.56 188.422607
17.58 189.002579
17.60 194.591705
17.62 194.095505
17.64 190.240387
17.66 195.587189
17.68 193.852539
17.70 195.41452
17.72 197.964844
17.74 192.590607
17.76 199.773834
17.78 201.440201
17.80 192.116226
17.82 190.90181
17.84 190.31105
17.86 197.065552
17.88 195.749649
17.90 193.071472
17.92 198.514877
17.94 201.123276
17.96 193.325546
17.98 189.961655
18.00 198.91803
18.02 203.992416
18.04 195.901443
18.06 192.830353
18.08 188.6875
18.10 195.566895
18.12 195.267151
18.14 201.535233
18.16 200.819351
18.18 204.304382
18.20 203.033386
18.22 206.261551
18.24 201.182144
18.26 196.166901
18.28 198.036758
18.30 201.455261
18.32 199.351563
18.34 203.709045
18.36 203.854172
18.38 207.682266
18.40 214.619629
18.42 209.594376
18.44 201.579636
18.46 205.576675
18.48 201.84082
18.50 203.07077
18.52 207.453201
18.54 206.630219
18.56 200.874725
18.58 197.55336
18.60 201.720306
18.62 213.735397
18.64 217.824066
18.66 217.453705
18.68 210.79921
18.70 210.392517
18.72 212.048935
18.74 215.952652
18.76 219.101563
18.78 216.589737
18.80 217.474319
18.82 217.333679
18.84 212.780975
18.86 215.957718
18.88 215.7444
18.90 216.328781
18.92 221.249512
18.94 213.941391
18.96 212.721649
18.98 212.862213
19.00 213.821655
19.02 217.008835
19.04 216.900818
19.06 216.683014
19.08 220.004837
19.10 223.93454
19.12 222.21698
19.14 220.964218
19.16 226.838913
19.18 224.402069
19.20 217.331818
19.22 220.225769
19.24 220.805817
19.26 226.646957
19.28 224.54689
19.30 226.928925
19.32 227.528793
19.34 226.027161
19.36 222.145081
19.38 227.487671
19.40 232.20018
19.42 227.637146
19.44 225.456879
19.46 225.152344
19.48 228.595367
19.50 230.036407
19.52 233.420441
19.54 234.418839
19.56 230.758926
19.58 231.455078
19.60 238.021423
19.62 233.498993
19.64 236.921051
19.66 238.131836
19.68 232.893539
19.70 231.504456
19.72 239.717361
19.74 245.174408
19.76 239.670456
19.78 241.810913
19.80 243.427032
19.82 249.706238
19.84 244.537216
19.86 245.870667
19.88 245.648239
19.90 245.135452
19.92 249.756363
19.94 250.369583
19.96 253.351349
19.98 260.649719
20.00 262.182251
20.02 258.96524
20.04 257.055054
20.06 257.129211
20.08 258.932861
20.10 258.626495
20.12 258.595856
20.14 259.599762
20.16 258.761688
20.18 260.823334
20.20 260.728027
20.22 256.461945
20.24 254.157303
20.26 256.737183
20.28 259.724579
20.30 256.585541
20.32 260.069916
20.34 255.603287
20.36 255.006851
20.38 248.538376
20.40 250.061295
20.42 253.008972
20.44 249.768845
20.46 248.63356
20.48 252.809967
20.50 255.089737
20.52 261.512451
20.54 256.541565
20.56 262.618744
20.58 262.840332
20.60 252.146225
20.62 255.736328
20.64 246.830948
20.66 255.789932
20.68 259.544006
20.70 258.222534
20.72 259.252075
20.74 267.553619
20.76 262.145844
20.78 262.908722
20.80 259.402344
20.82 259.175079
20.84 257.952484
20.86 269.108643
20.88 266.189087
20.90 258.079285
20.92 257.27948
20.94 262.9039
20.96 266.726624
20.98 263.431152
21.00 259.424713
21.02 261.379211
21.04 267.362823
21.06 263.166565
21.08 265.31543
21.10 273.015289
21.12 277.633636
21.14 270.227539
21.16 275.158478
21.18 267.188385
21.20 264.372162
21.22 270.741394
21.24 272.860718
21.26 273.657257
21.28 272.676941
21.30 270.802551
21.32 272.272827
21.34 265.12442
21.36 270.698517
21.38 270.150299
21.40 271.822998
21.42 273.24057
21.44 273.942413
21.46 281.002991
21.48 270.458557
21.50 274.29715
21.52 279.099884
21.54 279.429077
21.56 273.335724
21.58 279.007782
21.60 280.446869
21.62 279.981659
21.64 281.374908
21.66 282.116821
21.68 276.885803
21.70 279.607544
21.72 282.742615
21.74 287.356445
21.76 285.202942
21.78 284.455627
21.80 285.001434
21.82 282.696289
21.84 279.847168
21.86 284.974365
21.88 288.388947
21.90 280.252747
21.92 284.666229
21.94 283.941803
21.96 275.964478
21.98 289.624329
22.00 291.887177
22.02 288.160645
22.04 289.186066
22.06 291.883026
22.08 293.029572
22.10 285.910583
22.12 288.131653
22.14 287.201355
22.16 282.722229
22.18 282.940765
22.20 290.480896
22.22 288.392426
22.24 286.816254
22.26 288.265076
22.28 291.73941
22.30 296.556274
22.32 298.698822
22.34 294.107147
22.36 291.042053
22.38 298.581879
22.40 291.117035
22.42 288.021484
22.44 296.475372
22.46 296.864288
22.48 294.756165
22.50 292.10556
22.52 294.295258
22.54 289.792511
22.56 300.012207
22.58 293.563843
22.60 296.272034
22.62 300.477631
22.64 298.103455
22.66 298.392303
22.68 302.629791
22.70 302.008453
22.72 301.596313
22.74 299.554626
22.76 301.680115
22.78 298.791809
22.80 301.785522
22.82 305.468811
22.84 306.511993
22.86 304.226471
22.88 301.056427
22.90 305.397858
22.92 307.042358
22.94 303.064545
22.96 307.858185
22.98 306.09613
23.00 311.424774
23.02 309.990662
23.04 312.031616
23.06 306.379028
23.08 308.670502
23.10 307.925476
23.12 310.403717
23.14 311.529114
23.16 308.566895
23.18 310.888794
23.20 304.126709
23.22 302.913513
23.24 308.262421
23.26 307.452606
23.28 310.215576
23.30 315.233185
23.32 315.255768
23.34 313.961395
23.36 310.658234
23.38 307.708923
23.40 311.285675
23.42 313.362396
23.44 312.715454
23.46 311.697235
23.48 311.420197
23.50 320.087921
23.52 316.838776
23.54 323.27533
23.56 314.329071
23.58 321.958435
23.60 320.629791
23.62 320.699524
23.64 314.665527
23.66 317.300812
23.68 311.577148
23.70 313.980621
23.72 318.483765
23.74 315.007996
23.76 326.133057
23.78 319.983948
23.80 316.420044
23.82 312.663269
23.84 311.565704
23.86 313.994751
23.88 315.73526
23.90 317.579315
23.92 313.216766
23.94 313.129883
23.96 321.482361
23.98 318.019653
24.00 319.15564
24.02 322.193146
24.04 319.170715
24.06 321.992584
24.08 319.893646
24.10 319.735962
24.12 325.779999
24.14 329.317383
24.16 325.367889
24.18 314.026367
24.20 312.170319
24.22 316.93573
24.24 315.681
24.26 316.317139
24.28 315.367249
24.30 314.300842
24.32 320.89209
24.34 325.31958
24.36 321.043823
24.38 327.219849
24.40 335.172638
24.42 327.076263
24.44 327.80191
24.46 330.746185
24.48 328.466766
24.50 330.260895
24.52 326.517761
24.54 329.020844
24.56 331.292572
24.58 327.430389
24.60 327.559387
24.62 328.388916
24.64 334.910187
24.66 335.215515
24.68 334.408783
24.70 330.414215
24.72 329.224121
24.74 332.772675
24.76 331.773895
24.78 332.324097
24.80 330.510284
24.82 325.288116
24.84 324.156555
24.86 333.181946
24.88 334.425812
24.90 339.150879
24.92 332.75354
24.94 333.773987
24.96 327.739197
24.98 326.230927
25.00 324.247803
25.02 322.744965
25.04 321.234039
25.06 328.919128
25.08 325.534851
25.10 313.464203
25.12 317.269135
25.14 317.269958
25.16 319.941132
25.18 331.356293
25.20 333.069733
25.22 325.065857
25.24 318.268005
25.26 316.789185
25.28 323.476227
25.30 326.044769
25.32 322.75116
25.34 319.929779
25.36 323.048553
25.38 322.217804
25.40 327.339752
25.42 322.789795
25.44 318.344604
25.46 322.739899
25.48 328.97049
25.50 327.191742
25.52 325.394196
25.54 321.693756
25.56 327.749359
25.58 325.732971
25.60 322.068298
25.62 327.134338
25.64 323.079224
25.66 329.57077
25.68 331.028564
25.70 325.489563
25.72 323.214813
25.74 321.065796
25.76 316.56781
25.78 326.331909
25.80 325.291046
25.82 328.431732
25.84 329.485748
25.86 327.717773
25.88 328.638519
25.90 326.508148
25.92 327.046814
25.94 317.065521
25.96 319.507263
25.98 324.507996
26.00 316.252594
26.02 315.171448
26.04 319.050568
26.06 317.10788
26.08 321.199677
26.10 316.716309
26.12 321.527863
26.14 324.425476
26.16 325.621826
26.18 322.859344
26.20 315.851288
26.22 313.093964
26.24 315.25589
26.26 318.59848
26.28 318.703491
26.30 319.596344
26.32 318.951355
26.34 324.186005
26.36 324.378143
26.38 318.338806
26.40 314.344849
26.42 315.028412
26.44 321.269684
26.46 321.058685
26.48 319.417023
26.50 321.936127
26.52 316.28183
26.54 318.233124
26.56 317.781677
26.58 315.577667
26.60 316.813232
26.62 322.800598
26.64 322.916473
26.66 313.319916
26.68 314.669708
26.70 323.196503
26.72 322.722229
26.74 315.891846
26.76 317.680603
26.78 316.582214
26.80 317.503662
26.82 318.224304
26.84 318.423584
26.86 317.219482
26.88 312.377625
26.90 314.029266
26.92 319.16629
26.94 317.398163
26.96 319.416504
26.98 316.650665
27.00 314.485046
27.02 322.801575
27.04 325.255402
27.06 321.117188
27.08 312.899506
27.10 307.180206
27.12 319.585022
27.14 317.47287
27.16 324.105072
27.18 319.472687
27.20 321.279816
27.22 318.40744
27.24 319.232025
27.26 318.543365
27.28 316.830536
27.30 319.547333
27.32 313.758728
27.34 319.8508
27.36 321.267059
27.38 314.680878
27.40 321.331757
27.42 322.1987
27.44 315.916168
27.46 314.84201
27.48 318.586578
27.50 316.702942
27.52 310.046143
27.54 307.557983
27.56 309.329193
27.58 316.08252
27.60 317.720093
27.62 318.792114
27.64 316.829071
27.66 320.58728
27.68 321.565521
27.70 318.40506
27.72 320.675262
27.74 323.490997
27.76 324.803528
27.78 321.706268
27.80 324.661499
27.82 326.673553
27.84 326.991455
27.86 326.11322
27.88 324.93045
27.90 332.393951
27.92 336.855133
27.94 332.512268
27.96 330.539154
27.98 330.507904
28.00 338.908905
28.02 341.839844
28.04 341.794525
28.06 344.890259
28.08 353.760834
28.10 346.120361
28.12 350.890808
28.14 356.728821
28.16 366.09433
28.18 371.982452
28.20 369.278839
28.22 370.226471
28.24 374.749847
28.26 380.527069
28.28 393.408142
28.30 401.753632
28.32 405.708191
28.34 415.106812
28.36 430.409454
28.38 435.167847
28.40 438.208008
28.42 447.345581
28.44 458.946106
28.46 470.714478
28.48 467.179626
28.50 484.699036
28.52 484.015839
28.54 486.48465
28.56 491.40799
28.58 491.707123
28.60 494.60321
28.62 483.246521
28.64 475.293884
28.66 472.135925
28.68 457.608429
28.70 447.741241
28.72 443.078857
28.74 435.817261
28.76 421.167328
28.78 405.293549
28.80 394.172028
28.82 383.435516
28.84 378.263123
28.86 374.567657
28.88 368.2034
28.90 365.383301
28.92 360.844971
28.94 348.018066
28.96 349.294891
28.98 344.873199
29.00 340.49823
29.02 334.778198
29.04 332.980072
29.06 332.174744
29.08 326.020935
29.10 324.903961
29.12 331.438782
29.14 322.018372
29.16 316.855774
29.18 317.470001
29.20 316.561798
29.22 311.884705
29.24 314.462708
29.26 318.444946
29.28 317.032959
29.30 319.306366
29.32 322.127563
29.34 318.636261
29.36 311.856293
29.38 311.622742
29.40 314.100372
29.42 305.359802
29.44 309.181763
29.46 310.181335
29.48 299.373993
29.50 301.66922
29.52 307.278931
29.54 307.733246
29.56 301.14682
29.58 309.590179
29.60 312.670593
29.62 305.508057
29.64 309.565002
29.66 308.242493
29.68 308.13739
29.70 310.349976
29.72 307.412323
29.74 307.375671
29.76 306.209747
29.78 302.006042
29.80 298.915985
29.82 300.945618
29.84 304.620361
29.86 301.099976
29.88 300.855011
29.90 305.08786
29.92 306.508972
29.94 296.992035
29.96 295.749176
29.98 300.410889
30.00 312.414459
30.02 301.956482
30.04 304.683563
30.06 301.777466
30.08 305.647064
30.10 307.144531
30.12 305.195313
30.14 303.232605
30.16 305.460449
30.18 302.464722
30.20 301.696655
30.22 301.336853
30.24 302.131866
30.26 298.860046
30.28 298.405579
30.30 298.91684
30.32 297.503784
30.34 299.508087
30.36 298.165741
30.38 291.791962
30.40 291.76001
30.42 291.31308
30.44 291.789673
30.46 295.813141
30.48 299.472717
30.50 296.432495
30.52 296.296112
30.54 297.021912
30.56 297.096405
30.58 297.292389
30.60 304.170013
30.62 304.396271
30.64 302.413025
30.66 295.928741
30.68 299.718445
30.70 294.144409
30.72 294.224731
30.74 295.548431
30.76 296.011749
30.78 294.183014
30.80 296.471497
30.82 299.670654
30.84 300.445984
30.86 297.276733
30.88 299.305603
30.90 293.593262
30.92 292.789764
30.94 294.025269
30.96 298.405151
30.98 299.611298
31.00 295.334442
31.02 291.333923
31.04 291.25
31.06 291.196503
31.08 298.626038
31.10 298.148682
31.12 297.999725
31.14 294.816467
31.16 302.114868
31.18 298.738495
31.20 300.287964
31.22 296.993195
31.24 290.541962
31.26 296.568268
31.28 301.442322
31.30 299.071381
31.32 303.030548
31.34 304.234589
31.36 301.030701
31.38 301.661102
31.40 302.898224
31.42 299.355103
31.44 301.106842
31.46 306.060089
31.48 310.996002
31.50 313.074432
31.52 314.700897
31.54 315.697601
31.56 317.556793
31.58 310.588776
31.60 313.834747
31.62 317.786957
31.64 327.527588
31.66 327.352966
31.68 330.957123
31.70 334.065948
31.72 333.326111
31.74 335.339172
31.76 339.007996
31.78 343.575775
31.80 342.516327
31.82 346.830963
31.84 349.225037
31.86 351.962494
31.88 356.402374
31.90 362.714996
31.92 370.716614
31.94 369.607513
31.96 371.878174
31.98 376.818024
32.00 379.246368
32.02 381.983826
32.04 375.483978
32.06 368.348602
32.08 372.628479
32.10 369.510162
32.12 366.131287
32.14 362.963013
32.16 359.72287
32.18 356.879395
32.20 347.539215
32.22 344.977844
32.24 342.98172
32.26 343.665894
32.28 337.34671
32.30 326.579742
32.32 324.344086
32.34 323.756989
32.36 317.227173
32.38 311.800232
32.40 307.61026
32.42 304.177185
32.44 304.270599
32.46 300.564575
32.48 301.424042
32.50 294.416321
32.52 290.114319
32.54 292.033661
32.56 289.881927
32.58 288.77002
32.60 286.263672
32.62 283.926758
32.64 288.180695
32.66 294.499969
32.68 290.688354
32.70 282.825256
32.72 272.589111
32.74 273.20755
32.76 282.704742
32.78 280.7276
32.80 273.735321
32.82 277.134277
32.84 267.248169
32.86 263.337219
32.88 267.397156
32.90 272.738678
32.92 270.293793
32.94 270.827789
32.96 273.034576
32.98 273.195221
33.00 266.441406
33.02 266.774292
33.04 266.440826
33.06 268.493683
33.08 274.274445
33.10 270.402008
33.12 265.846222
33.14 262.992157
33.16 263.945892
33.18 262.049469
33.20 261.792236
33.22 264.650726
33.24 268.042969
33.26 267.986389
33.28 265.789795
33.30 263.057159
33.32 264.921021
33.34 260.957062
33.36 259.616608
33.38 264.216064
33.40 263.257904
33.42 261.173584
33.44 262.29776
33.46 260.805542
33.48 263.919983
33.50 264.754852
33.52 266.790894
33.54 264.142731
33.56 260.232147
33.58 255.811188
33.60 252.847275
33.62 253.901794
33.64 254.297073
33.66 252.995926
33.68 255.322876
33.70 256.124908
33.72 256.290497
33.74 252.166153
33.76 257.034637
33.78 259.870209
33.80 255.633804
33.82 249.494919
33.84 248.246536
33.86 252.182831
33.88 250.990662
33.90 246.791855
33.92 244.57019
33.94 248.839432
33.96 249.922684
33.98 243.865784
34.00 243.04744
34.02 245.14299
34.04 242.366776
34.06 242.094864
34.08 247.562576
34.10 243.348755
34.12 247.958267
34.14 250.659149
34.16 245.458878
34.18 250.087448
34.20 246.598068
34.22 242.704453
34.24 246.98909
34.26 248.519928
34.28 248.27861
34.30 246.195267
34.32 241.577591
34.34 243.648987
34.36 245.482956
34.38 243.759277
34.40 240.220795
34.42 238.821747
34.44 238.622116
34.46 241.40976
34.48 237.248779
34.50 239.948853
34.52 240.470978
34.54 242.2827
34.56 240.187393
34.58 236.709137
34.60 236.824448
34.62 235.376648
34.64 233.361343
34.66 235.15181
34.68 236.754272
34.70 235.602173
34.72 234.225006
34.74 232.763901
34.76 239.426697
34.78 242.325546
34.80 241.166473
34.82 237.085449
34.84 235.928406
34.86 233.585709
34.88 238.87352
34.90 237.801041
34.92 236.614395
34.94 235.714371
34.96 235.367111
34.98 241.53447
35.00 238.454636
35.02 234.772705
35.04 239.291168
35.06 242.036545
35.08 240.868149
35.10 233.45047
35.12 231.882843
35.14 236.418564
35.16 233.66127
35.18 233.65242
35.20 228.787277
35.22 229.038696
35.24 232.152756
35.26 232.201645
35.28 228.215546
35.30 222.678741
35.32 226.321915
35.34 225.725983
35.36 227.898499
35.38 227.749527
35.40 224.223648
35.42 227.047058
35.44 226.762985
35.46 229.314636
35.48 226.130249
35.50 219.689087
35.52 217.929382
35.54 217.323196
35.56 211.555908
35.58 217.456085
35.60 219.389938
35.62 219.216431
35.64 223.458176
35.66 221.054001
35.68 220.531586
35.70 219.904297
35.72 216.403351
35.74 212.692001
35.76 217.39444
35.78 215.98053
35.80 219.206482
35.82 219.289841
35.84 218.822113
35.86 218.919083
35.88 211.612488
35.90 209.191254
35.92 204.727448
35.94 202.717484
35.96 211.239716
35.98 210.925247
36.00 205.29512
36.02 212.439178
36.04 210.595703
36.06 205.653137
36.08 207.158127
36.10 203.299469
36.12 209.713043
36.14 215.218567
36.16 209.938599
36.18 207.974335
36.20 202.182297
36.22 204.245575
36.24 207.191544
36.26 205.612198
36.28 203.589722
36.30 205.391083
36.32 196.824402
36.34 196.58078
36.36 199.131485
36.38 201.612244
36.40 199.834442
36.42 196.937973
36.44 196.706909
36.46 198.20636
36.48 200.900696
36.50 202.988525
36.52 203.350403
36.54 202.252487
36.56 194.502014
36.58 198.521225
36.60 204.119949
36.62 199.458527
36.64 201.203049
36.66 198.975784
36.68 194.168274
36.70 200.490891
36.72 197.227875
36.74 197.864319
36.76 203.981552
36.78 198.8479
36.80 198.021896
36.82 197.845108
36.84 197.571457
36.86 194.816086
36.88 194.706909
36.90 193.517303
36.92 190.45697
36.94 193.015381
36.96 194.385361
36.98 198.721939
37.00 193.995163
37.02 191.450806
37.04 194.319122
37.06 191.242752
37.08 190.917419
37.10 195.393723
37.12 194.000793
37.14 195.466156
37.16 190.168961
37.18 188.837708
37.20 185.939819
37.22 191.139023
37.24 193.584305
37.26 197.546509
37.28 199.450302
37.30 195.896851
37.32 192.085281
37.34 187.626022
37.36 187.264435
37.38 185.842773
37.40 184.169891
37.42 189.519592
37.44 188.625916
37.46 186.92688
37.48 193.434402
37.50 186.083054
37.52 183.905273
37.54 185.474335
37.56 191.455734
37.58 189.969772
37.60 187.297806
37.62 180.705673
37.64 182.633087
37.66 186.519638
37.68 187.534225
37.70 182.751877
37.72 181.508759
37.74 183.527786
37.76 183.485626
37.78 186.786652
37.80 183.326965
37.82 181.548096
37.84 185.67717
37.86 184.961197
37.88 179.210693
37.90 185.480118
37.92 185.301514
37.94 180.443893
37.96 182.958603
37.98 178.124954
38.00 181.554077
38.02 184.264847
38.04 186.354919
38.06 182.935715
38.08 182.745499
38.10 184.204712
38.12 179.36412
38.14 178.196259
38.16 179.182693
38.18 181.616364
38.20 176.7108
38.22 182.332291
38.24 177.538864
38.26 175.431
38.28 177.649689
38.30 179.303986
38.32 181.796539
38.34 180.773834
38.36 180.051651
38.38 181.516418
38.40 179.437195
38.42 182.299393
38.44 184.176529
38.46 184.496078
38.48 186.384018
38.50 176.003586
38.52 175.167496
38.54 179.426987
38.56 177.544373
38.58 180.009445
38.60 175.363083
38.62 173.482346
38.64 176.746414
38.66 179.649979
38.68 179.840881
38.70 181.618469
38.72 179.890259
38.74 177.256073
38.76 176.562759
38.78 180.449478
38.80 180.187973
38.82 176.267136
38.84 175.698624
38.86 176.04248
38.88 178.611023
38.90 178.543655
38.92 176.304886
38.94 177.566589
38.96 174.625916
38.98 171.733368
39.00 176.758484
39.02 172.47113
39.04 170.719986
39.06 169.108139
39.08 169.074478
39.10 167.81102
39.12 169.659317
39.14 170.010086
39.16 169.41777
39.18 167.20871
39.20 167.833298
39.22 168.882828
39.24 165.754135
39.26 167.971054
39.28 170.477005
39.30 164.793198
39.32 169.588577
39.34 171.956985
39.36 172.497192
39.38 174.250061
39.40 168.64801
39.42 171.883621
39.44 171.76622
39.46 166.99791
39.48 173.364685
39.50 169.787064
39.52 170.527298
39.54 164.969772
39.56 168.192642
39.58 170.013855
39.60 162.560135
39.62 169.775604
39.64 170.901276
39.66 165.153259
39.68 166.020935
39.70 169.554413
39.72 168.940384
39.74 168.695587
39.76 166.711777
39.78 168.066681
39.80 165.635056
39.82 162.518005
39.84 164.884949
39.86 165.922974
39.88 168.821243
39.90 170.234665
39.92 166.698257
39.94 163.828659
39.96 159.088989
39.98 163.478607
40.00 171.035721
