!@!!GADDS PLOTSO FILE: Chi integration type
!@!!Title/SampleName: ML_MAPbX3_chem16_longer
!@!!User: NREL
!@!!Site: NREL SERF C211; SN 2510
!@!!Frame: C:\frames\rbelisle\MLProject\081922_ML_MAPbX3_chem16_long_000_001.gfrm
!@!!Wavelengths    1.54184   1.54056   1.54439
!@!!Frame angles: 2Theta: 28.000 Omega: 5.000 Phi: 0.000 Chi: 90.000
!@!!Integration range: 2Theta: 10.000 to 40.000  Gamma: -135.000 to -110.000
!@!!Integration method: bin normalized
!@!N
!@!SS
!@!M
!@!L 0.0 0.0 0.0 0.0
!@!XDegrees
!@!YCounts
10.00 361.911346
10.02 341.292023
10.04 339.443726
10.06 329.420624
10.08 326.536194
10.10 353.245422
10.12 339.916504
10.14 324.197174
10.16 342.705109
10.18 345.007507
10.20 375.016632
10.22 367.092072
10.24 346.372986
10.26 359.900726
10.28 358.173706
10.30 362.667267
10.32 366.288055
10.34 359.705017
10.36 347.382843
10.38 343.635437
10.40 353.999481
10.42 376.216034
10.44 382.193848
10.46 390.107239
10.48 373.576355
10.50 368.894104
10.52 379.570404
10.54 388.179321
10.56 372.599609
10.58 372.522766
10.60 367.7659
10.62 376.196503
10.64 392.216217
10.66 398.240326
10.68 389.585632
10.70 385.3078
10.72 385.848969
10.74 380.964111
10.76 403.76062
10.78 410.996307
10.80 397.990448
10.82 401.200287
10.84 401.963226
10.86 428.34903
10.88 406.124512
10.90 371.148834
10.92 399.392151
10.94 409.019714
10.96 371.284576
10.98 401.531342
11.00 419.008209
11.02 415.581177
11.04 422.026093
11.06 424.553986
11.08 424.580536
11.10 430.542633
11.12 423.245575
11.14 441.600494
11.16 443.467377
11.18 430.641418
11.20 410.000214
11.22 424.538055
11.24 422.85202
11.26 444.945221
11.28 448.382813
11.30 459.131714
11.32 452.611877
11.34 479.51001
11.36 447.184814
11.38 418.929413
11.40 429.755219
11.42 443.103485
11.44 442.770355
11.46 437.630066
11.48 437.821198
11.50 453.565369
11.52 455.805206
11.54 455.120819
11.56 462.499756
11.58 475.165497
11.60 477.689911
11.62 448.388611
11.64 437.150177
11.66 451.900696
11.68 457.076874
11.70 467.882172
11.72 466.073395
11.74 478.741333
11.76 467.183899
11.78 484.777344
11.80 495.090851
11.82 473.572845
11.84 473.804749
11.86 483.811768
11.88 511.161926
11.90 476.392242
11.92 475.464325
11.94 467.677887
11.96 498.806519
11.98 507.18634
12.00 492.657501
12.02 491.253906
12.04 492.789215
12.06 475.183167
12.08 496.968933
12.10 488.847748
12.12 497.055511
12.14 505.69278
12.16 509.746552
12.18 516.480225
12.20 493.450073
12.22 485.399048
12.24 519.670166
12.26 500.904297
12.28 485.514587
12.30 493.015839
12.32 511.450043
12.34 503.928436
12.36 497.605133
12.38 527.113159
12.40 524.136169
12.42 544.478516
12.44 520.893188
12.46 509.286591
12.48 506.758148
12.50 537.317383
12.52 562.39624
12.54 549.86499
12.56 524.005066
12.58 520.346252
12.60 562.876831
12.62 564.521057
12.64 565.095703
12.66 567.646118
12.68 560.621033
12.70 538.111023
12.72 544.814392
12.74 556.181458
12.76 556.34729
12.78 558.079956
12.80 541.748169
12.82 542.902771
12.84 517.811829
12.86 517.214478
12.88 526.207825
12.90 538.073181
12.92 525.328674
12.94 553.713074
12.96 550.321228
12.98 540.474243
13.00 550.999268
13.02 545.956238
13.04 547.364746
13.06 532.45166
13.08 532.258606
13.10 543.167542
13.12 585.360657
13.14 546.908142
13.16 533.019409
13.18 539.64978
13.20 547.687256
13.22 538.758301
13.24 529.964539
13.26 534.050293
13.28 513.261108
13.30 532.357056
13.32 545.767395
13.34 540.456726
13.36 536.345337
13.38 542.736511
13.40 542.303589
13.42 534.1828
13.44 531.313904
13.46 552.995728
13.48 564.604797
13.50 543.865723
13.52 533.523926
13.54 553.270874
13.56 550.963867
13.58 558.13269
13.60 574.80896
13.62 565.522583
13.64 567.497314
13.66 558.965393
13.68 560.179749
13.70 553.398376
13.72 567.980347
13.74 575.596008
13.76 556.604614
13.78 544.820984
13.80 564.308167
13.82 561.319519
13.84 562.568787
13.86 572.885193
13.88 564.717529
13.90 559.269531
13.92 548.063843
13.94 579.404053
13.96 571.124817
13.98 583.852478
14.00 568.179626
14.02 570.85321
14.04 559.644958
14.06 587.701538
14.08 582.409607
14.10 575.072144
14.12 576.883911
14.14 568.274292
14.16 574.754578
14.18 585.031677
14.20 580.453125
14.22 583.264404
14.24 567.460815
14.26 581.185486
14.28 582.23468
14.30 585.673035
14.32 572.303223
14.34 586.542786
14.36 598.858032
14.38 590.548706
14.40 566.883667
14.42 566.744385
14.44 556.241211
14.46 576.249207
14.48 584.2323
14.50 574.100952
14.52 596.395935
14.54 595.767395
14.56 566.314636
14.58 572.476135
14.60 572.30719
14.62 578.779114
14.64 575.537476
14.66 570.536804
14.68 585.385681
14.70 585.287598
14.72 583.271851
14.74 595.668945
14.76 594.883301
14.78 596.625671
14.80 604.783997
14.82 599.671326
14.84 611.296692
14.86 604.401733
14.88 604.6698
14.90 620.728943
14.92 628.100464
14.94 613.296692
14.96 598.660339
14.98 601.600098
15.00 627.463074
15.02 631.09668
15.04 614.959412
15.06 616.500854
15.08 629.611755
15.10 621.265747
15.12 637.02594
15.14 658.629089
15.16 646.185425
15.18 627.900757
15.20 669.714844
15.22 663.863525
15.24 631.982422
15.26 656.939697
15.28 653.987976
15.30 652.735352
15.32 663.313232
15.34 673.626648
15.36 661.661255
15.38 664.270203
15.40 652.252319
15.42 665.435608
15.44 672.304932
15.46 657.669983
15.48 667.397522
15.50 651.780884
15.52 620.170654
15.54 628.404053
15.56 634.626953
15.58 621.874512
15.60 606.59314
15.62 629.867126
15.64 645.320984
15.66 650.072815
15.68 662.938965
15.70 635.056335
15.72 628.42926
15.74 640.3703
15.76 610.925232
15.78 610.414978
15.80 637.039795
15.82 628.127747
15.84 636.196533
15.86 630.456543
15.88 644.13855
15.90 644.830688
15.92 607.646118
15.94 603.276367
15.96 633.961243
15.98 639.670044
16.00 642.883667
16.02 647.869141
16.04 635.840332
16.06 638.293823
16.08 626.666199
16.10 633.986877
16.12 651.389709
16.14 615.366699
16.16 624.584473
16.18 633.986633
16.20 651.933289
16.22 648.81604
16.24 641.416199
16.26 640.762329
16.28 629.849182
16.30 639.231628
16.32 646.617249
16.34 646.64447
16.36 641.444702
16.38 669.394226
16.40 669.842041
16.42 675.386475
16.44 669.753784
16.46 649.510559
16.48 639.805298
16.50 637.825806
16.52 659.187073
16.54 668.121094
16.56 678.079651
16.58 659.958008
16.60 636.772156
16.62 654.621033
16.64 663.351624
16.66 677.509949
16.68 664.74646
16.70 654.639221
16.72 642.935547
16.74 645.671692
16.76 660.33136
16.78 682.001282
16.80 673.11615
16.82 665.231567
16.84 660.751953
16.86 666.723206
16.88 658.939026
16.90 669.050659
16.92 658.598083
16.94 648.949463
16.96 664.529175
16.98 683.440125
17.00 689.011719
17.02 659.442749
17.04 636.542358
17.06 668.174622
17.08 685.022339
17.10 677.830261
17.12 675.2677
17.14 685.295715
17.16 668.923584
17.18 673.941406
17.20 708.458496
17.22 710.641907
17.24 702.27655
17.26 686.296326
17.28 678.404602
17.30 688.314148
17.32 685.113098
17.34 687.104431
17.36 704.04718
17.38 718.198853
17.40 709.553894
17.42 702.685059
17.44 703.992798
17.46 718.006714
17.48 700.657898
17.50 693.854797
17.52 708.067749
17.54 703.397522
17.56 704.203186
17.58 707.934692
17.60 710.751526
17.62 692.748047
17.64 727.691956
17.66 736.920349
17.68 734.499023
17.70 722.092285
17.72 742.860657
17.74 713.682678
17.76 703.108765
17.78 697.716736
17.80 723.875916
17.82 723.216614
17.84 724.727356
17.86 738.13269
17.88 744.957642
17.90 735.470825
17.92 727.193115
17.94 747.275024
17.96 744.285461
17.98 713.718201
18.00 713.982361
18.02 737.457031
18.04 757.920105
18.06 748.918335
18.08 733.839233
18.10 757.480957
18.12 766.664734
18.14 749.053223
18.16 740.415588
18.18 752.880554
18.20 780.567078
18.22 770.830994
18.24 774.826172
18.26 773.280701
18.28 765.987854
18.30 775.986145
18.32 764.242554
18.34 738.144836
18.36 756.47052
18.38 779.955933
18.40 777.648865
18.42 767.951599
18.44 783.490967
18.46 808.698486
18.48 797.492798
18.50 789.224548
18.52 773.054138
18.54 764.600525
18.56 772.99646
18.58 796.293579
18.60 807.046021
18.62 794.647217
18.64 797.881226
18.66 777.806152
18.68 778.061951
18.70 805.104065
18.72 776.676086
18.74 763.07605
18.76 784.96936
18.78 790.76062
18.80 798.12854
18.82 803.430481
18.84 832.973816
18.86 798.859497
18.88 790.795227
18.90 793.889099
18.92 807.858215
18.94 815.733337
18.96 811.477295
18.98 824.88269
19.00 827.167175
19.02 808.64856
19.04 808.195923
19.06 828.298828
19.08 837.008911
19.10 848.204102
19.12 842.321533
19.14 842.645264
19.16 842.575806
19.18 836.561829
19.20 824.328064
19.22 847.342407
19.24 853.910645
19.26 848.632996
19.28 857.533813
19.30 858.14978
19.32 858.087463
19.34 845.870178
19.36 846.115967
19.38 822.067322
19.40 811.391174
19.42 819.832153
19.44 841.951843
19.46 833.584351
19.48 824.785645
19.50 849.944702
19.52 854.209839
19.54 850.761963
19.56 870.122498
19.58 866.739441
19.60 866.156555
19.62 850.018494
19.64 846.578491
19.66 849.904785
19.68 861.322571
19.70 876.331848
19.72 896.547241
19.74 910.225403
19.76 887.600159
19.78 862.562805
19.80 879.673279
19.82 890.565796
19.84 891.233032
19.86 908.959595
19.88 912.845215
19.90 920.443115
19.92 921.356445
19.94 897.468079
19.96 897.798035
19.98 916.627441
20.00 909.953796
20.02 899.893799
20.04 895.78009
20.06 894.286621
20.08 899.66748
20.10 898.599426
20.12 897.482849
20.14 915.786377
20.16 937.307068
20.18 921.464417
20.20 923.641052
20.22 917.913757
20.24 925.430603
20.26 935.490234
20.28 926.568909
20.30 923.84436
20.32 934.038391
20.34 938.422058
20.36 914.446228
20.38 918.86792
20.40 934.804993
20.42 916.741882
20.44 893.464294
20.46 922.006653
20.48 929.44519
20.50 930.941284
20.52 961.129456
20.54 961.549622
20.56 934.799072
20.58 936.542603
20.60 941.314697
20.62 952.846313
20.64 942.576355
20.66 946.49585
20.68 958.779175
20.70 955.570923
20.72 963.797791
20.74 956.622559
20.76 946.908752
20.78 943.079529
20.80 968.125061
20.82 970.73761
20.84 966.134583
20.86 977.913025
20.88 1008.243103
20.90 1016.641785
20.92 1013.059326
20.94 996.967529
20.96 992.472412
20.98 1001.557495
21.00 1010.757385
21.02 1026.5979
21.04 996.636475
21.06 1016.779236
21.08 1037.132324
21.10 1026.619629
21.12 1020.474915
21.14 1012.072876
21.16 1021.350586
21.18 1016.120483
21.20 1022.028625
21.22 1021.656555
21.24 1043.408936
21.26 1066.259277
21.28 1053.038452
21.30 1018.423462
21.32 1040.145752
21.34 1057.356934
21.36 1050.330322
21.38 1052.974243
21.40 1047.436523
21.42 1086.89563
21.44 1110.11853
21.46 1096.672852
21.48 1131.789795
21.50 1118.292725
21.52 1142.585083
21.54 1139.61145
21.56 1116.699219
21.58 1108.001221
21.60 1113.792358
21.62 1134.231812
21.64 1147.287842
21.66 1148.791748
21.68 1163.517334
21.70 1134.215088
21.72 1142.313354
21.74 1144.886841
21.76 1120.29187
21.78 1148.364136
21.80 1169.774902
21.82 1141.717041
21.84 1141.608765
21.86 1155.578979
21.88 1151.807739
21.90 1144.320313
21.92 1146.237549
21.94 1117.906616
21.96 1116.149292
21.98 1133.550049
22.00 1152.143433
22.02 1137.0896
22.04 1144.022583
22.06 1135.920654
22.08 1110.233398
22.10 1118.960449
22.12 1107.516724
22.14 1112.096558
22.16 1104.025513
22.18 1140.052734
22.20 1142.847046
22.22 1113.136597
22.24 1103.644775
22.26 1099.871948
22.28 1096.344238
22.30 1110.260986
22.32 1122.276123
22.34 1115.147705
22.36 1088.849487
22.38 1098.380737
22.40 1107.373291
22.42 1103.232544
22.44 1091.9552
22.46 1100.526978
22.48 1107.970093
22.50 1122.983154
22.52 1115.478638
22.54 1123.205444
22.56 1119.051758
22.58 1110.447876
22.60 1113.180176
22.62 1121.923096
22.64 1110.663818
22.66 1121.797974
22.68 1118.151489
22.70 1123.692261
22.72 1144.386475
22.74 1144.524048
22.76 1140.908081
22.78 1121.139404
22.80 1106.154541
22.82 1126.611938
22.84 1147.276001
22.86 1159.358154
22.88 1138.595581
22.90 1119.06958
22.92 1130.319824
22.94 1127.43103
22.96 1127.11438
22.98 1148.04248
23.00 1141.697388
23.02 1134.515747
23.04 1132.283447
23.06 1157.323364
23.08 1164.506226
23.10 1144.963745
23.12 1115.173828
23.14 1125.878296
23.16 1134.729614
23.18 1134.793823
23.20 1140.737671
23.22 1141.422607
23.24 1147.473389
23.26 1165.794678
23.28 1171.013672
23.30 1163.110229
23.32 1156.48584
23.34 1148.255249
23.36 1141.026367
23.38 1130.700317
23.40 1138.019653
23.42 1151.531982
23.44 1138.95459
23.46 1123.676025
23.48 1140.368408
23.50 1166.863037
23.52 1153.827148
23.54 1144.231445
23.56 1140.107666
23.58 1153.325684
23.60 1165.153564
23.62 1143.990845
23.64 1173.745239
23.66 1173.164795
23.68 1151.447754
23.70 1153.137451
23.72 1154.116577
23.74 1168.401855
23.76 1186.643433
23.78 1182.151245
23.80 1171.61853
23.82 1188.182983
23.84 1175.25293
23.86 1179.78772
23.88 1171.462158
23.90 1155.165649
23.92 1162.546753
23.94 1144.078613
23.96 1153.6427
23.98 1183.795288
24.00 1196.610107
24.02 1167.924316
24.04 1158.571289
24.06 1143.987305
24.08 1157.857666
24.10 1195.870972
24.12 1201.105591
24.14 1184.549561
24.16 1172.175659
24.18 1170.84436
24.20 1183.549194
24.22 1173.394043
24.24 1183.495117
24.26 1179.337158
24.28 1182.653076
24.30 1172.091064
24.32 1169.802979
24.34 1192.930298
24.36 1180.014648
24.38 1184.403076
24.40 1179.018188
24.42 1169.768921
24.44 1166.768677
24.46 1178.675903
24.48 1186.530396
24.50 1197.543579
24.52 1189.999878
24.54 1188.478271
24.56 1182.18042
24.58 1173.218994
24.60 1160.598999
24.62 1187.488647
24.64 1189.771362
24.66 1179.955444
24.68 1197.405884
24.70 1186.450684
24.72 1183.703613
24.74 1212.519775
24.76 1205.574585
24.78 1188.197876
24.80 1176.094971
24.82 1186.965088
24.84 1185.555664
24.86 1175.715454
24.88 1178.864746
24.90 1214.053955
24.92 1226.419678
24.94 1204.312134
24.96 1184.509888
24.98 1194.353516
25.00 1206.771851
25.02 1200.724365
25.04 1204.508057
25.06 1191.076538
25.08 1192.977295
25.10 1211.086914
25.12 1221.178467
25.14 1228.02771
25.16 1198.303223
25.18 1177.468994
25.20 1204.271851
25.22 1194.859009
25.24 1192.028931
25.26 1215.259033
25.28 1229.784424
25.30 1221.299927
25.32 1220.609009
25.34 1216.615479
25.36 1214.890503
25.38 1199.109009
25.40 1193.983887
25.42 1206.976685
25.44 1213.711914
25.46 1215.004517
25.48 1201.203491
25.50 1224.903198
25.52 1213.62915
25.54 1195.735474
25.56 1218.039551
25.58 1224.197998
25.60 1193.223999
25.62 1188.928711
25.64 1198.573364
25.66 1183.899536
25.68 1165.82605
25.70 1173.783569
25.72 1208.486206
25.74 1226.553955
25.76 1214.601196
25.78 1226.088623
25.80 1225.700684
25.82 1217.394165
25.84 1208.60022
25.86 1199.254028
25.88 1191.950928
25.90 1199.971558
25.92 1197.676392
25.94 1203.811768
25.96 1208.328247
25.98 1193.951294
26.00 1198.916016
26.02 1223.394287
26.04 1237.593506
26.06 1235.348877
26.08 1216.965332
26.10 1208.150757
26.12 1205.060059
26.14 1201.082031
26.16 1218.818481
26.18 1212.387695
26.20 1195.497559
26.22 1194.516968
26.24 1214.727295
26.26 1215.693115
26.28 1201.573486
26.30 1194.618774
26.32 1185.121704
26.34 1182.094971
26.36 1206.026367
26.38 1225.158691
26.40 1208.924072
26.42 1193.63147
26.44 1197.618042
26.46 1189.837036
26.48 1170.358643
26.50 1189.298218
26.52 1200.544189
26.54 1201.330811
26.56 1200.993652
26.58 1225.125977
26.60 1206.996704
26.62 1193.359985
26.64 1204.233154
26.66 1202.244263
26.68 1201.550659
26.70 1202.322266
26.72 1190.690796
26.74 1192.19397
26.76 1202.60022
26.78 1201.968018
26.80 1206.772095
26.82 1197.810425
26.84 1175.034058
26.86 1172.734131
26.88 1187.68396
26.90 1184.584595
26.92 1187.674316
26.94 1194.397827
26.96 1202.486206
26.98 1187.22937
27.00 1209.891357
27.02 1196.919067
27.04 1203.508789
27.06 1196.315674
27.08 1188.981812
27.10 1178.892944
27.12 1190.44519
27.14 1192.840454
27.16 1170.726807
27.18 1185.696411
27.20 1192.78186
27.22 1184.184326
27.24 1193.789673
27.26 1193.675293
27.28 1188.021118
27.30 1177.515015
27.32 1167.560791
27.34 1206.051025
27.36 1186.252441
27.38 1190.414429
27.40 1201.806274
27.42 1213.689087
27.44 1185.584473
27.46 1195.771118
27.48 1205.694702
27.50 1183.059204
27.52 1188.035889
27.54 1192.385498
27.56 1188.010742
27.58 1189.270874
27.60 1176.599487
27.62 1161.891602
27.64 1178.097168
27.66 1180.682373
27.68 1184.02002
27.70 1199.611328
27.72 1209.33728
27.74 1209.540039
27.76 1171.302612
27.78 1164.31897
27.80 1189.786011
27.82 1188.508789
27.84 1181.872681
27.86 1196.793091
27.88 1210.688477
27.90 1175.419678
27.92 1171.373657
27.94 1179.893799
27.96 1176.496948
27.98 1168.433105
28.00 1171.065796
28.02 1167.80542
28.04 1152.304321
28.06 1177.094482
28.08 1180.253418
28.10 1186.312988
28.12 1201.354248
28.14 1157.484741
28.16 1145.878174
28.18 1170.327271
28.20 1182.760254
28.22 1170.102051
28.24 1164.748779
28.26 1182.891968
28.28 1184.771729
28.30 1178.29541
28.32 1176.376343
28.34 1190.321533
28.36 1164.456665
28.38 1157.194092
28.40 1162.714233
28.42 1156.482422
28.44 1143.016235
28.46 1169.636963
28.48 1173.16394
28.50 1165.157471
28.52 1170.610229
28.54 1181.401367
28.56 1182.84021
28.58 1174.712891
28.60 1167.340576
28.62 1171.737061
28.64 1161.22644
28.66 1155.645508
28.68 1133.224487
28.70 1158.873901
28.72 1170.18811
28.74 1156.748779
28.76 1143.645874
28.78 1135.481812
28.80 1161.890869
28.82 1169.833374
28.84 1149.950684
28.86 1130.944336
28.88 1135.93396
28.90 1137.822998
28.92 1138.084106
28.94 1132.876221
28.96 1150.455078
28.98 1149.588745
29.00 1134.957886
29.02 1130.578735
29.04 1143.037231
29.06 1143.229248
29.08 1132.115479
29.10 1150.220337
29.12 1161.288696
29.14 1153.977783
29.16 1126.970703
29.18 1139.436646
29.20 1138.456909
29.22 1130.065674
29.24 1125.292603
29.26 1123.818237
29.28 1129.384766
29.30 1117.735229
29.32 1110.974731
29.34 1125.810181
29.36 1121.229614
29.38 1125.251221
29.40 1134.133301
29.42 1110.192261
29.44 1122.647095
29.46 1113.541992
29.48 1110.809937
29.50 1118.927979
29.52 1128.567383
29.54 1116.762939
29.56 1132.496582
29.58 1117.022217
29.60 1137.836792
29.62 1139.36145
29.64 1122.246338
29.66 1124.639771
29.68 1111.62793
29.70 1103.124756
29.72 1093.321655
29.74 1085.947388
29.76 1087.696045
29.78 1108.027222
29.80 1100.567627
29.82 1102.688477
29.84 1121.557007
29.86 1130.431152
29.88 1124.297974
29.90 1143.04248
29.92 1128.158691
29.94 1116.248657
29.96 1100.518433
29.98 1107.878906
30.00 1085.963379
30.02 1084.340698
30.04 1079.365723
30.06 1085.576172
30.08 1084.023071
30.10 1095.62439
30.12 1108.338013
30.14 1102.236938
30.16 1099.692993
30.18 1089.452759
30.20 1081.297974
30.22 1098.301758
30.24 1092.704834
30.26 1079.586182
30.28 1073.558472
30.30 1078.531982
30.32 1076.0802
30.34 1076.265869
30.36 1086.47644
30.38 1099.189453
30.40 1099.333984
30.42 1084.696167
30.44 1081.307983
30.46 1073.7854
30.48 1069.363281
30.50 1084.038086
30.52 1074.672852
30.54 1077.059814
30.56 1058.742065
30.58 1043.493042
30.60 1060.607422
30.62 1067.713745
30.64 1075.849243
30.66 1049.775391
30.68 1045.353516
30.70 1082.590942
30.72 1069.36792
30.74 1079.629395
30.76 1079.990356
30.78 1076.040405
30.80 1068.412964
30.82 1065.746582
30.84 1075.537476
30.86 1068.364624
30.88 1050.770386
30.90 1044.935547
30.92 1063.258911
30.94 1057.054932
30.96 1063.375488
30.98 1082.881592
31.00 1060.073853
31.02 1027.144043
31.04 1019.682617
31.06 1047.601318
31.08 1034.15686
31.10 1027.80957
31.12 1024.270264
31.14 1055.324707
31.16 1057.968506
31.18 1037.28418
31.20 1041.097656
31.22 1020.412048
31.24 1007.862427
31.26 1031.114014
31.28 1048.229492
31.30 1051.09082
31.32 1027.628784
31.34 1013.120056
31.36 1005.832886
31.38 997.259766
31.40 1004.518372
31.42 1012.011475
31.44 1009.555847
31.46 1013.335754
31.48 1007.105042
31.50 1007.152405
31.52 1011.072388
31.54 1015.795227
31.56 1009.145203
31.58 995.697021
31.60 983.500977
31.62 987.59137
31.64 992.324097
31.66 977.849487
31.68 990.351746
31.70 988.421631
31.72 972.62085
31.74 968.44989
31.76 973.029297
31.78 967.730042
31.80 975.385498
31.82 970.885254
31.84 968.765686
31.86 980.092834
31.88 981.458008
31.90 965.295898
31.92 970.140503
31.94 966.107117
31.96 969.358582
31.98 971.567688
32.00 973.800293
32.02 973.086853
32.04 959.887756
32.06 976.68927
32.08 967.244385
32.10 960.770874
32.12 949.663696
32.14 962.784851
32.16 951.775513
32.18 952.350952
32.20 970.593079
32.22 965.835754
32.24 987.650696
32.26 994.924683
32.28 1002.010803
32.30 998.37323
32.32 970.712097
32.34 957.135437
32.36 969.466675
32.38 973.523743
32.40 951.170105
32.42 930.768188
32.44 925.503357
32.46 924.961548
32.48 939.295715
32.50 956.480835
32.52 955.864868
32.54 950.240967
32.56 944.992188
32.58 947.541748
32.60 959.859802
32.62 968.488159
32.64 977.32428
32.66 965.034302
32.68 950.449219
32.70 952.728516
32.72 962.604553
32.74 954.872498
32.76 934.565002
32.78 927.445251
32.80 921.088135
32.82 953.444641
32.84 955.016541
32.86 946.99231
32.88 928.194641
32.90 922.028748
32.92 931.124756
32.94 911.232544
32.96 931.809875
32.98 932.725647
33.00 942.414001
33.02 939.925232
33.04 927.976563
33.06 929.582153
33.08 924.765076
33.10 936.045166
33.12 944.908081
33.14 943.523682
33.16 933.255005
33.18 920.245972
33.20 918.815552
33.22 920.53064
33.24 899.354004
33.26 916.678162
33.28 915.386414
33.30 910.7005
33.32 913.896179
33.34 923.282104
33.36 929.66571
33.38 930.360168
33.40 932.068054
33.42 914.776367
33.44 899.5979
33.46 911.600098
33.48 919.227417
33.50 929.434265
33.52 924.457581
33.54 891.954041
33.56 905.213074
33.58 907.872559
33.60 897.513672
33.62 915.949585
33.64 930.948914
33.66 914.290588
33.68 912.228027
33.70 899.672302
33.72 911.905518
33.74 910.389343
33.76 911.05304
33.78 911.716003
33.80 900.58429
33.82 900.14624
33.84 899.263245
33.86 901.07196
33.88 902.8078
33.90 913.304565
33.92 914.894287
33.94 908.651123
33.96 899.927612
33.98 897.258118
34.00 920.117432
34.02 927.945618
34.04 902.614014
34.06 911.694458
34.08 912.659668
34.10 900.08606
34.12 893.15686
34.14 912.574036
34.16 912.311218
34.18 902.623047
34.20 912.322815
34.22 916.139709
34.24 910.961304
34.26 918.547607
34.28 928.026001
34.30 931.843323
34.32 923.022034
34.34 920.837158
34.36 921.030029
34.38 935.88031
34.40 925.928772
34.42 940.265503
34.44 955.432312
34.46 970.185913
34.48 954.763245
34.50 935.45929
34.52 948.277161
34.54 956.40802
34.56 977.641296
34.58 974.884705
34.60 980.339355
34.62 986.38031
34.64 995.807922
34.66 985.320435
34.68 993.070313
34.70 1004.295288
34.72 1010.789734
34.74 1009.430786
34.76 987.013367
34.78 991.72467
34.80 1000.321472
34.82 986.421997
34.84 1027.672729
34.86 1006.663391
34.88 996.206909
34.90 1009.493469
34.92 1009.532959
34.94 987.552002
34.96 981.115417
34.98 981.216064
35.00 973.654236
35.02 972.55957
35.04 967.469421
35.06 959.217651
35.08 950.016296
35.10 960.969849
35.12 950.985046
35.14 944.985901
35.16 942.159546
35.18 940.79834
35.20 925.230469
35.22 935.483948
35.24 935.026672
35.26 913.399231
35.28 897.42749
35.30 884.894653
35.32 881.733948
35.34 882.698486
35.36 878.728088
35.38 869.464417
35.40 838.771118
35.42 837.895325
35.44 872.939575
35.46 859.176575
35.48 859.656128
35.50 853.375916
35.52 847.836548
35.54 835.73175
35.56 828.474487
35.58 830.225342
35.60 830.951599
35.62 824.253662
35.64 808.312622
35.66 798.591187
35.68 801.133362
35.70 785.572693
35.72 795.934387
35.74 798.4505
35.76 800.079895
35.78 791.460999
35.80 792.008057
35.82 808.267395
35.84 803.732605
35.86 797.495544
35.88 780.93988
35.90 762.622986
35.92 791.128723
35.94 789.196594
35.96 775.997192
35.98 794.859924
36.00 779.651062
36.02 778.065002
36.04 775.880554
36.06 760.515137
36.08 777.657654
36.10 789.518921
36.12 780.67511
36.14 778.315186
36.16 782.093018
36.18 774.863525
36.20 775.583557
36.22 774.342285
36.24 769.68866
36.26 770.960754
36.28 770.830444
36.30 735.096313
36.32 726.740784
36.34 741.900513
36.36 766.086182
36.38 768.944214
36.40 750.055969
36.42 745.75531
36.44 736.860901
36.46 746.387634
36.48 748.324097
36.50 762.871216
36.52 766.429688
36.54 761.082581
36.56 750.344116
36.58 721.911316
36.60 737.246582
36.62 736.609314
36.64 729.913818
36.66 728.031067
36.68 740.903503
36.70 740.214355
36.72 745.018555
36.74 734.424927
36.76 744.509094
36.78 738.416199
36.80 724.927856
36.82 738.877808
36.84 721.239685
36.86 734.883545
36.88 705.129639
36.90 703.027527
36.92 712.889954
36.94 742.806458
36.96 723.69989
36.98 706.483765
37.00 702.091003
37.02 716.24115
37.04 719.613342
37.06 710.71344
37.08 704.871155
37.10 729.800903
37.12 721.244385
37.14 710.289856
37.16 715.109802
37.18 716.936768
37.20 698.82782
37.22 706.440125
37.24 721.001953
37.26 703.618225
37.28 697.961426
37.30 692.137878
37.32 692.06897
37.34 687.893188
37.36 687.008667
37.38 693.207886
37.40 712.108826
37.42 705.867249
37.44 695.975037
37.46 684.500366
37.48 694.951172
37.50 698.983948
37.52 698.667542
37.54 701.400513
37.56 714.571045
37.58 721.632874
37.60 706.384888
37.62 716.237
37.64 687.364197
37.66 695.166321
37.68 697.936218
37.70 689.629822
37.72 694.025024
37.74 696.544922
37.76 703.922302
37.78 705.034241
37.80 693.68042
37.82 694.767761
37.84 697.308167
37.86 680.155945
37.88 686.324158
37.90 701.959167
37.92 700.875732
37.94 687.822205
37.96 692.838501
37.98 709.294067
38.00 701.827637
38.02 703.521423
38.04 688.590454
38.06 696.370972
38.08 683.982849
38.10 694.774475
38.12 708.927612
38.14 726.984253
38.16 707.124878
38.18 714.516968
38.20 702.145325
38.22 693.916138
38.24 701.202698
38.26 714.388611
38.28 703.970886
38.30 706.610291
38.32 699.05011
38.34 687.686768
38.36 682.361572
38.38 682.299866
38.40 681.356995
38.42 697.121277
38.44 696.60675
38.46 671.633667
38.48 674.666199
38.50 690.761292
38.52 691.846375
38.54 686.941833
38.56 688.050415
38.58 671.096802
38.60 656.819153
38.62 647.586243
38.64 644.296936
38.66 671.838562
38.68 671.933716
38.70 651.446594
38.72 665.187988
38.74 664.503601
38.76 638.808472
38.78 653.394775
38.80 652.916809
38.82 663.664429
38.84 651.388977
38.86 640.035217
38.88 629.439026
38.90 625.001648
38.92 630.049622
38.94 655.24707
38.96 633.803101
38.98 630.25946
39.00 620.614502
39.02 606.072266
39.04 621.346252
39.06 642.835022
39.08 624.832214
39.10 625.104126
39.12 627.980225
39.14 614.684021
39.16 617.659546
39.18 631.983032
39.20 630.04364
39.22 619.872925
39.24 611.630493
39.26 606.92688
39.28 608.897827
39.30 620.309387
39.32 621.069824
39.34 610.854858
39.36 612.278076
39.38 629.021912
39.40 636.386108
39.42 603.99823
39.44 621.986328
39.46 611.752625
39.48 590.575378
39.50 599.281311
39.52 602.912476
39.54 612.652466
39.56 603.598511
39.58 613.66687
39.60 620.041321
39.62 602.701355
39.64 594.898438
39.66 594.330383
39.68 594.789795
39.70 601.701111
39.72 614.739441
39.74 583.109497
39.76 577.604919
39.78 587.75824
39.80 591.075195
39.82 590.131958
39.84 596.655884
39.86 574.421875
39.88 578.143494
39.90 568.367676
39.92 575.259155
39.94 579.299316
39.96 584.263245
39.98 570.313721
40.00 572.040161
