!@!!GADDS PLOTSO FILE: Chi integration type
!@!!Title/SampleName: ML_MAPbX3
!@!!User: NREL
!@!!Site: NREL SERF C211; SN 2510
!@!!Frame: 081022_MLProject_000_016.gfrm
!@!!Wavelengths    1.54184   1.54056   1.54439
!@!!Frame angles: 2Theta: 28.000 Omega: 5.000 Phi: 0.000 Chi: 90.000
!@!!Integration range: 2Theta: 10.000 to 41.100  Gamma: -120.400 to -60.400
!@!!Integration method: bin normalized
!@!N
!@!SS
!@!M
!@!L 0.0 0.0 0.0 0.0
!@!XDegrees
!@!YCounts
10.00 203.220581
10.01 209.781372
10.02 216.039536
10.03 221.85881
10.04 228.407745
10.05 233.71759
10.06 225.764694
10.07 210.854202
10.08 206.362656
10.09 209.157318
10.10 215.38945
10.11 220.873871
10.12 220.558762
10.13 217.990402
10.14 221.590912
10.15 225.650848
10.16 225.775085
10.17 213.617508
10.18 210.783936
10.19 222.792053
10.20 229.323105
10.21 227.088715
10.22 224.054214
10.23 216.631638
10.24 216.102371
10.25 224.637039
10.26 224.791489
10.27 225.200485
10.28 229.674713
10.29 224.9496
10.30 216.964844
10.31 216.729797
10.32 219.493454
10.33 217.587769
10.34 223.261703
10.35 233.954834
10.36 226.280594
10.37 214.799652
10.38 213.471832
10.39 215.678375
10.40 217.722549
10.41 217.392303
10.42 219.596924
10.43 216.575775
10.44 217.301483
10.45 228.327972
10.46 228.20755
10.47 221.810715
10.48 225.246567
10.49 227.449631
10.50 227.635254
10.51 226.767441
10.52 225.233231
10.53 224.851593
10.54 216.240036
10.55 213.794998
10.56 220.664215
10.57 225.77034
10.58 225.459854
10.59 219.375824
10.60 218.179642
10.61 222.841476
10.62 224.703339
10.63 230.090012
10.64 235.103012
10.65 228.10437
10.66 223.439819
10.67 231.18576
10.68 235.860931
10.69 226.932343
10.70 222.523514
10.71 227.123611
10.72 228.437729
10.73 235.683655
10.74 239.92688
10.75 235.537231
10.76 228.118576
10.77 225.756241
10.78 227.064026
10.79 220.606049
10.80 220.564316
10.81 230.444427
10.82 232.657944
10.83 228.279572
10.84 223.778595
10.85 224.769867
10.86 229.981049
10.87 236.708984
10.88 241.440643
10.89 232.590851
10.90 234.576065
10.91 241.153702
10.92 237.459518
10.93 239.753311
10.94 237.960602
10.95 232.143982
10.96 230.890549
10.97 240.132111
10.98 249.57045
10.99 250.725143
11.00 241.750259
11.01 236.564041
11.02 238.700546
11.03 234.596222
11.04 230.021439
11.05 229.669373
11.06 228.416367
11.07 226.223892
11.08 228.308578
11.09 236.241913
11.10 247.085052
11.11 243.218094
11.12 238.513077
11.13 239.096466
11.14 231.143661
11.15 225.495468
11.16 230.610886
11.17 240.337387
11.18 241.995163
11.19 247.318237
11.20 258.147461
11.21 256.164734
11.22 240.58519
11.23 234.674606
11.24 232.694458
11.25 230.495438
11.26 233.839798
11.27 235.127136
11.28 235.153732
11.29 234.034164
11.30 228.596207
11.31 232.169373
11.32 239.847076
11.33 232.347488
11.34 230.602036
11.35 245.988663
11.36 253.365906
11.37 252.114243
11.38 252.532928
11.39 249.133377
11.40 243.546402
11.41 236.469482
11.42 238.103638
11.43 242.786713
11.44 245.754227
11.45 247.228577
11.46 243.880447
11.47 243.882553
11.48 249.845398
11.49 248.712479
11.50 248.316498
11.51 254.601273
11.52 250.920761
11.53 241.479462
11.54 241.465042
11.55 247.275711
11.56 245.754044
11.57 242.641556
11.58 246.02095
11.59 246.229584
11.60 248.012085
11.61 243.048676
11.62 242.369583
11.63 251.919266
11.64 254.071121
11.65 244.159729
11.66 240.090424
11.67 252.549652
11.68 255.499557
11.69 256.677429
11.70 259.005005
11.71 258.251587
11.72 259.023834
11.73 260.367493
11.74 257.48819
11.75 250.168671
11.76 254.304977
11.77 255.170761
11.78 250.141129
11.79 250.194016
11.80 250.894104
11.81 257.006134
11.82 263.558044
11.83 256.618378
11.84 248.980621
11.85 249.402817
11.86 250.903214
11.87 251.863647
11.88 254.106689
11.89 257.122559
11.90 259.530548
11.91 268.556305
11.92 277.308228
11.93 281.380646
11.94 269.122833
11.95 253.402069
11.96 252.405762
11.97 258.005798
11.98 264.703613
11.99 266.103088
12.00 264.553497
12.01 268.184601
12.02 265.15802
12.03 263.727722
12.04 269.749451
12.05 276.497498
12.06 283.785583
12.07 287.558319
12.08 286.970337
12.09 279.728241
12.10 281.427277
12.11 285.705719
12.12 282.353333
12.13 283.149475
12.14 287.918152
12.15 281.530121
12.16 272.884033
12.17 274.630981
12.18 273.400787
12.19 277.467804
12.20 283.453308
12.21 282.354431
12.22 284.926086
12.23 289.433411
12.24 288.78241
12.25 290.47937
12.26 293.033813
12.27 288.625
12.28 288.866302
12.29 292.981934
12.30 286.674286
12.31 278.318329
12.32 283.5896
12.33 294.217224
12.34 296.605469
12.35 297.131348
12.36 297.717224
12.37 298.847229
12.38 296.210419
12.39 299.078369
12.40 305.153168
12.41 310.406372
12.42 322.782959
12.43 327.351807
12.44 323.291534
12.45 323.826416
12.46 316.522095
12.47 320.097351
12.48 326.396484
12.49 329.541931
12.50 339.489807
12.51 340.580994
12.52 341.760468
12.53 342.814941
12.54 338.740143
12.55 342.865082
12.56 345.70047
12.57 338.426392
12.58 338.504608
12.59 339.62381
12.60 334.841156
12.61 325.574249
12.62 329.893616
12.63 338.32547
12.64 333.707001
12.65 330.458527
12.66 330.753326
12.67 332.273956
12.68 336.718536
12.69 332.718414
12.70 323.929443
12.71 317.429413
12.72 313.313599
12.73 313.459991
12.74 323.223145
12.75 332.018677
12.76 321.022217
12.77 318.300934
12.78 319.147888
12.79 308.453278
12.80 303.171082
12.81 291.626526
12.82 289.240112
12.83 290.509521
12.84 297.19281
12.85 305.551025
12.86 296.752106
12.87 289.928162
12.88 295.139709
12.89 302.974182
12.90 302.918915
12.91 293.360168
12.92 289.598206
12.93 285.826691
12.94 280.706451
12.95 278.505219
12.96 274.726929
12.97 274.606995
12.98 275.193726
12.99 276.566559
13.00 282.156403
13.01 287.94809
13.02 290.853546
13.03 288.191406
13.04 288.13205
13.05 283.734375
13.06 281.934265
13.07 284.819855
13.08 283.657684
13.09 282.557953
13.10 287.534393
13.11 292.743225
13.12 293.978912
13.13 284.691284
13.14 280.393494
13.15 281.740997
13.16 281.118713
13.17 285.20517
13.18 284.398254
13.19 285.901489
13.20 283.149231
13.21 275.864594
13.22 278.795593
13.23 285.691284
13.24 283.234375
13.25 278.280121
13.26 276.65506
13.27 275.171967
13.28 285.911346
13.29 292.477661
13.30 289.325928
13.31 285.083527
13.32 288.885406
13.33 287.337463
13.34 291.508118
13.35 298.257172
13.36 293.036194
13.37 287.604218
13.38 284.833069
13.39 283.151276
13.40 281.813049
13.41 279.23233
13.42 283.662598
13.43 295.608002
13.44 302.39798
13.45 306.482391
13.46 310.35553
13.47 312.890259
13.48 317.375549
13.49 321.478882
13.50 315.384552
13.51 305.906708
13.52 308.8685
13.53 314.326233
13.54 321.514709
13.55 319.341949
13.56 317.797485
13.57 327.689423
13.58 335.864136
13.59 345.675873
13.60 356.94931
13.61 361.225952
13.62 357.130463
13.63 350.507294
13.64 352.380005
13.65 355.639771
13.66 353.038239
13.67 348.382996
13.68 356.100403
13.69 372.270203
13.70 378.762024
13.71 381.227142
13.72 384.540741
13.73 398.961975
13.74 401.729095
13.75 400.16275
13.76 412.826355
13.77 423.57373
13.78 429.160492
13.79 436.777649
13.80 446.981995
13.81 450.196136
13.82 442.400604
13.83 448.780182
13.84 464.426727
13.85 478.734619
13.86 489.71048
13.87 490.672363
13.88 498.297882
13.89 515.986816
13.90 538.839294
13.91 543.487915
13.92 547.696045
13.93 563.115967
13.94 569.721436
13.95 565.879578
13.96 571.773438
13.97 584.499512
13.98 593.366943
13.99 603.632874
14.00 627.536377
14.01 655.846863
14.02 668.866455
14.03 656.523804
14.04 656.608337
14.05 658.066223
14.06 645.800171
14.07 652.021362
14.08 656.321472
14.09 659.676208
14.10 661.72937
14.11 651.205994
14.12 645.744019
14.13 648.583435
14.14 647.180115
14.15 639.725952
14.16 635.361084
14.17 638.10321
14.18 621.308228
14.19 603.46637
14.20 590.009033
14.21 573.234009
14.22 561.972778
14.23 555.191284
14.24 543.379822
14.25 520.235535
14.26 492.586792
14.27 475.264221
14.28 462.312866
14.29 447.492798
14.30 427.15271
14.31 428.820496
14.32 424.182739
14.33 401.754089
14.34 388.065704
14.35 395.292175
14.36 397.578766
14.37 386.888824
14.38 373.380768
14.39 365.288757
14.40 367.07373
14.41 371.698975
14.42 369.235199
14.43 359.006805
14.44 355.387939
14.45 346.94046
14.46 337.866699
14.47 326.427734
14.48 316.350983
14.49 313.990509
14.50 314.431061
14.51 327.755371
14.52 343.684296
14.53 340.132965
14.54 332.7836
14.55 330.049957
14.56 322.083954
14.57 318.019714
14.58 314.648346
14.59 311.286377
14.60 308.830963
14.61 307.527283
14.62 305.753357
14.63 305.601532
14.64 308.390198
14.65 314.651367
14.66 320.777557
14.67 318.930878
14.68 314.505554
14.69 313.90097
14.70 325.46109
14.71 332.579803
14.72 331.550598
14.73 326.570648
14.74 321.976959
14.75 322.754578
14.76 323.418793
14.77 313.108521
14.78 307.346924
14.79 309.576111
14.80 307.930328
14.81 307.31958
14.82 310.823364
14.83 312.598358
14.84 311.160492
14.85 320.099213
14.86 327.796082
14.87 327.656464
14.88 321.766357
14.89 317.523438
14.90 315.757507
14.91 312.742035
14.92 314.740509
14.93 320.577637
14.94 321.086731
14.95 318.982727
14.96 328.008453
14.97 327.719299
14.98 322.674011
14.99 325.219238
15.00 326.465179
15.01 322.591431
15.02 324.540558
15.03 319.659729
15.04 322.4216
15.05 329.659943
15.06 326.65155
15.07 336.456177
15.08 340.172211
15.09 331.070343
15.10 332.684357
15.11 341.654999
15.12 345.13562
15.13 339.316986
15.14 339.75354
15.15 351.639252
15.16 354.475525
15.17 356.541229
15.18 357.934174
15.19 359.643463
15.20 363.732849
15.21 359.947723
15.22 359.56839
15.23 364.3414
15.24 368.237885
15.25 366.844299
15.26 367.130524
15.27 366.808746
15.28 362.328949
15.29 367.716492
15.30 378.180634
15.31 382.142059
15.32 384.440338
15.33 382.398346
15.34 374.756592
15.35 372.108551
15.36 380.01828
15.37 382.634033
15.38 376.836823
15.39 376.993805
15.40 375.957428
15.41 376.25769
15.42 378.050903
15.43 379.817047
15.44 383.873718
15.45 379.741669
15.46 368.644196
15.47 365.693573
15.48 369.571228
15.49 362.723236
15.50 357.9953
15.51 362.469421
15.52 363.628876
15.53 363.395935
15.54 359.860657
15.55 359.002655
15.56 364.981781
15.57 362.040283
15.58 356.108856
15.59 347.859558
15.60 334.776886
15.61 342.972809
15.62 356.106323
15.63 351.157166
15.64 345.448822
15.65 344.959259
15.66 344.716431
15.67 335.430603
15.68 327.712067
15.69 329.90976
15.70 330.206573
15.71 329.259521
15.72 334.670959
15.73 335.806824
15.74 332.580658
15.75 327.747253
15.76 326.914825
15.77 322.452393
15.78 325.560486
15.79 330.549866
15.80 328.1091
15.81 327.305939
15.82 321.830353
15.83 324.452026
15.84 331.196106
15.85 325.432343
15.86 324.731537
15.87 326.275818
15.88 322.357819
15.89 330.743195
15.90 328.344849
15.91 319.080383
15.92 311.040985
15.93 310.46814
15.94 315.868744
15.95 316.503448
15.96 320.066071
15.97 323.923126
15.98 331.423981
15.99 336.477509
16.00 331.814636
16.01 329.04834
16.02 328.849182
16.03 329.856323
16.04 331.509308
16.05 333.20343
16.06 328.597473
16.07 325.307922
16.08 325.464294
16.09 325.041687
16.10 329.088348
16.11 333.459198
16.12 332.638336
16.13 324.916046
16.14 323.445862
16.15 328.820282
16.16 333.52951
16.17 330.705353
16.18 334.657959
16.19 340.685394
16.20 329.782501
16.21 322.612793
16.22 321.848724
16.23 317.203156
16.24 313.979462
16.25 318.168915
16.26 323.798676
16.27 321.141541
16.28 323.103607
16.29 325.143066
16.30 329.207184
16.31 333.903778
16.32 338.677002
16.33 336.209717
16.34 329.666351
16.35 328.427551
16.36 325.648743
16.37 322.798645
16.38 331.619812
16.39 337.547272
16.40 339.653931
16.41 331.548218
16.42 328.348938
16.43 326.440308
16.44 324.357208
16.45 321.903259
16.46 320.587097
16.47 324.355377
16.48 325.807159
16.49 327.808044
16.50 331.033539
16.51 335.467255
16.52 338.809723
16.53 334.716919
16.54 331.681976
16.55 333.670746
16.56 328.236206
16.57 318.165558
16.58 327.818634
16.59 331.279907
16.60 325.322937
16.61 326.220886
16.62 321.734894
16.63 321.313843
16.64 332.32077
16.65 339.617065
16.66 342.112488
16.67 343.286713
16.68 344.414459
16.69 343.930969
16.70 344.353821
16.71 343.247498
16.72 339.751831
16.73 344.361267
16.74 341.967957
16.75 337.302124
16.76 334.212463
16.77 333.169617
16.78 340.670898
16.79 347.450104
16.80 343.357269
16.81 336.117432
16.82 331.483734
16.83 327.281158
16.84 322.867188
16.85 329.150421
16.86 337.291595
16.87 334.422638
16.88 340.077881
16.89 342.952087
16.90 338.305237
16.91 339.037598
16.92 332.160675
16.93 323.823029
16.94 323.513458
16.95 324.580109
16.96 331.283966
16.97 340.962677
16.98 346.746552
16.99 352.544373
17.00 356.137756
17.01 346.498779
17.02 339.702881
17.03 344.235809
17.04 344.551239
17.05 343.244293
17.06 344.777039
17.07 344.220673
17.08 346.95282
17.09 345.644928
17.10 340.323669
17.11 342.781952
17.12 350.607544
17.13 346.236725
17.14 347.007782
17.15 350.482361
17.16 350.380341
17.17 353.61261
17.18 350.017212
17.19 338.468842
17.20 340.270996
17.21 347.177216
17.22 348.980682
17.23 348.416046
17.24 346.492157
17.25 336.689606
17.26 335.696198
17.27 342.880432
17.28 332.064545
17.29 332.097839
17.30 345.344696
17.31 343.655304
17.32 340.189087
17.33 342.889526
17.34 352.697784
17.35 351.466431
17.36 352.445465
17.37 354.354736
17.38 348.27005
17.39 342.369415
17.40 340.208221
17.41 348.994934
17.42 356.179443
17.43 357.021729
17.44 348.362
17.45 352.35968
17.46 356.7677
17.47 352.845703
17.48 357.010864
17.49 362.996765
17.50 371.23407
17.51 373.01474
17.52 364.263184
17.53 356.845978
17.54 357.090332
17.55 360.461243
17.56 359.725189
17.57 355.886475
17.58 352.137177
17.59 352.638519
17.60 355.926025
17.61 358.86731
17.62 358.781219
17.63 355.164093
17.64 357.107483
17.65 358.225037
17.66 366.178589
17.67 372.719299
17.68 376.137604
17.69 372.359833
17.70 372.151855
17.71 373.291046
17.72 371.875549
17.73 363.67395
17.74 358.598511
17.75 356.766266
17.76 358.290924
17.77 365.35788
17.78 362.135834
17.79 356.213593
17.80 358.190552
17.81 358.898773
17.82 364.708771
17.83 369.652679
17.84 364.503448
17.85 363.700287
17.86 370.937592
17.87 370.300873
17.88 370.024597
17.89 371.28299
17.90 364.256165
17.91 367.795807
17.92 372.514191
17.93 375.450348
17.94 374.661438
17.95 367.777863
17.96 369.784882
17.97 376.508423
17.98 371.460693
17.99 369.171967
18.00 375.467926
18.01 382.57608
18.02 387.082245
18.03 382.755188
18.04 375.59845
18.05 378.131165
18.06 384.761047
18.07 384.441376
18.08 382.242249
18.09 378.087006
18.10 374.123657
18.11 375.947601
18.12 375.546997
18.13 383.516632
18.14 384.932251
18.15 375.556641
18.16 380.140961
18.17 385.531097
18.18 381.756958
18.19 374.610046
18.20 380.789886
18.21 384.965912
18.22 381.064392
18.23 377.999451
18.24 371.26004
18.25 372.221497
18.26 370.898651
18.27 373.14505
18.28 382.453156
18.29 384.651733
18.30 382.808105
18.31 382.746552
18.32 390.858246
18.33 391.068146
18.34 385.712433
18.35 384.838409
18.36 384.234192
18.37 388.808533
18.38 391.581787
18.39 402.397491
18.40 409.794403
18.41 398.69809
18.42 391.643066
18.43 387.284088
18.44 382.572876
18.45 385.407074
18.46 389.24057
18.47 388.708313
18.48 387.191101
18.49 387.513977
18.50 386.83786
18.51 388.021942
18.52 392.70108
18.53 391.629761
18.54 392.652893
18.55 394.436676
18.56 391.437775
18.57 391.532074
18.58 384.791199
18.59 379.098633
18.60 385.095306
18.61 392.04657
18.62 392.488129
18.63 398.369354
18.64 402.335327
18.65 400.000977
18.66 398.152679
18.67 396.683136
18.68 404.613678
18.69 409.600098
18.70 403.527985
18.71 402.772552
18.72 411.048584
18.73 422.730591
18.74 418.131348
18.75 407.280396
18.76 406.279358
18.77 401.134552
18.78 400.535126
18.79 406.122833
18.80 402.721741
18.81 401.427246
18.82 396.428162
18.83 388.44574
18.84 389.864075
18.85 403.286804
18.86 408.325623
18.87 407.015411
18.88 405.088165
18.89 402.092224
18.90 404.000793
18.91 410.80191
18.92 416.456451
18.93 419.037201
18.94 418.38913
18.95 408.365387
18.96 402.577545
18.97 411.412506
18.98 413.723846
18.99 411.261658
19.00 417.464813
19.01 418.675842
19.02 410.750153
19.03 406.050018
19.04 406.322205
19.05 408.2966
19.06 406.417694
19.07 402.815552
19.08 407.164886
19.09 414.77948
19.10 414.698761
19.11 409.753967
19.12 413.352234
19.13 422.237305
19.14 422.007568
19.15 418.558136
19.16 424.799866
19.17 424.823059
19.18 411.71463
19.19 415.400604
19.20 423.180725
19.21 427.602539
19.22 423.705048
19.23 420.720459
19.24 421.400085
19.25 424.419983
19.26 428.457184
19.27 430.409882
19.28 430.427429
19.29 430.744293
19.30 428.194672
19.31 426.51358
19.32 424.72464
19.33 418.725342
19.34 410.608063
19.35 406.204681
19.36 411.977264
19.37 417.302673
19.38 422.302155
19.39 421.101685
19.40 422.669159
19.41 422.681427
19.42 422.426392
19.43 428.042816
19.44 429.372803
19.45 429.568268
19.46 431.630096
19.47 435.083099
19.48 438.576874
19.49 438.434906
19.50 441.981842
19.51 443.036346
19.52 433.569672
19.53 432.651215
19.54 441.112732
19.55 442.271698
19.56 437.651611
19.57 444.405945
19.58 452.341675
19.59 447.120392
19.60 436.63678
19.61 430.150665
19.62 432.305389
19.63 441.066101
19.64 444.22937
19.65 443.19519
19.66 449.589508
19.67 449.98999
19.68 443.053467
19.69 445.893341
19.70 453.981964
19.71 456.361267
19.72 455.847504
19.73 452.336945
19.74 449.853973
19.75 444.255615
19.76 438.77066
19.77 443.827881
19.78 446.493896
19.79 449.766449
19.80 454.793518
19.81 454.907623
19.82 460.563263
19.83 464.389893
19.84 460.630127
19.85 461.428711
19.86 461.915466
19.87 463.027466
19.88 460.953308
19.89 460.383362
19.90 463.659576
19.91 461.234283
19.92 458.853546
19.93 457.867584
19.94 459.204315
19.95 472.383026
19.96 481.75827
19.97 477.50119
19.98 469.208252
19.99 465.984985
20.00 467.444641
20.01 471.924866
20.02 472.4552
20.03 473.360687
20.04 468.713837
20.05 460.546265
20.06 459.516968
20.07 465.690735
20.08 466.286011
20.09 468.941589
20.10 468.917755
20.11 468.524689
20.12 464.692474
20.13 463.840454
20.14 463.429626
20.15 458.663239
20.16 459.444916
20.17 453.111389
20.18 457.716339
20.19 476.255707
20.20 479.93866
20.21 481.764191
20.22 479.018188
20.23 468.102631
20.24 469.914246
20.25 473.555939
20.26 463.333405
20.27 458.639099
20.28 461.28952
20.29 466.613007
20.30 471.030457
20.31 471.355347
20.32 473.505157
20.33 478.987335
20.34 479.151062
20.35 475.556946
20.36 479.991852
20.37 478.130341
20.38 474.947906
20.39 476.075867
20.40 479.119019
20.41 478.365875
20.42 480.684631
20.43 473.516785
20.44 467.384766
20.45 471.585419
20.46 480.545013
20.47 481.485107
20.48 481.64212
20.49 476.274902
20.50 481.848419
20.51 489.471466
20.52 485.921661
20.53 485.726471
20.54 487.667908
20.55 486.929108
20.56 491.5289
20.57 490.373108
20.58 486.990326
20.59 492.055939
20.60 489.177643
20.61 474.488068
20.62 470.264069
20.63 473.247101
20.64 478.240662
20.65 480.361389
20.66 481.159088
20.67 477.989838
20.68 481.026886
20.69 485.674561
20.70 490.820465
20.71 493.320892
20.72 491.474335
20.73 485.977112
20.74 485.874054
20.75 488.72583
20.76 487.07132
20.77 488.124023
20.78 498.107056
20.79 506.211548
20.80 507.205688
20.81 506.214447
20.82 505.206512
20.83 506.93219
20.84 510.753906
20.85 499.399506
20.86 492.006836
20.87 496.920105
20.88 495.523132
20.89 491.693817
20.90 492.319763
20.91 487.415588
20.92 482.728882
20.93 484.129913
20.94 489.293854
20.95 494.287476
20.96 502.422882
20.97 510.089996
20.98 511.818726
20.99 513.170349
21.00 510.950317
21.01 507.710449
21.02 509.048004
21.03 507.803467
21.04 509.245422
21.05 508.95874
21.06 505.457458
21.07 505.960022
21.08 505.017914
21.09 508.448425
21.10 516.051575
21.11 514.14679
21.12 509.588348
21.13 515.102478
21.14 513.792419
21.15 516.367676
21.16 520.849243
21.17 514.931824
21.18 501.700775
21.19 496.075745
21.20 497.50119
21.21 501.11554
21.22 509.994171
21.23 513.563904
21.24 513.47998
21.25 523.78125
21.26 523.681946
21.27 518.41272
21.28 519.625061
21.29 517.278687
21.30 521.320862
21.31 524.671814
21.32 524.150024
21.33 523.788513
21.34 522.55365
21.35 521.967529
21.36 527.705994
21.37 530.572144
21.38 531.26123
21.39 534.575195
21.40 533.113892
21.41 528.558411
21.42 519.606873
21.43 518.261353
21.44 529.228027
21.45 526.673706
21.46 521.028748
21.47 521.070435
21.48 527.633667
21.49 538.225891
21.50 541.593872
21.51 529.82782
21.52 526.054932
21.53 527.428711
21.54 534.190857
21.55 539.314941
21.56 536.537415
21.57 540.821411
21.58 545.558655
21.59 536.415955
21.60 532.998474
21.61 526.848877
21.62 524.106201
21.63 533.604126
21.64 535.23114
21.65 535.820557
21.66 537.946411
21.67 537.612427
21.68 539.135254
21.69 548.360413
21.70 546.43396
21.71 537.841187
21.72 543.527039
21.73 546.035339
21.74 545.75116
21.75 542.373169
21.76 541.202637
21.77 542.588928
21.78 551.254639
21.79 552.890747
21.80 553.433105
21.81 557.931274
21.82 554.647644
21.83 545.029785
21.84 537.379883
21.85 533.642761
21.86 538.67749
21.87 545.641724
21.88 545.804382
21.89 546.187927
21.90 550.878967
21.91 546.015869
21.92 546.30249
21.93 543.533936
21.94 542.696045
21.95 555.167114
21.96 563.376038
21.97 565.332825
21.98 566.948486
21.99 564.473694
22.00 551.582825
22.01 550.58429
22.02 554.399719
22.03 560.747498
22.04 562.827881
22.05 557.466187
22.06 547.290161
22.07 541.158386
22.08 544.295654
22.09 549.60675
22.10 548.052673
22.11 543.536377
22.12 550.752991
22.13 557.641663
22.14 556.934631
22.15 554.432617
22.16 552.634705
22.17 554.192444
22.18 553.740112
22.19 555.584961
22.20 564.891602
22.21 562.959961
22.22 553.147156
22.23 551.878052
22.24 563.371155
22.25 565.821106
22.26 562.878662
22.27 562.273315
22.28 556.475464
22.29 546.596558
22.30 541.252319
22.31 548.314148
22.32 556.167847
22.33 566.403809
22.34 567.915588
22.35 564.938049
22.36 558.637817
22.37 556.89093
22.38 561.875427
22.39 562.326904
22.40 567.154724
22.41 563.299561
22.42 563.423035
22.43 567.761414
22.44 562.455139
22.45 561.198792
22.46 569.894043
22.47 575.160095
22.48 570.356934
22.49 571.74408
22.50 576.718994
22.51 569.947083
22.52 565.428589
22.53 565.579956
22.54 562.524963
22.55 565.145264
22.56 572.039246
22.57 579.415833
22.58 579.218689
22.59 583.127258
22.60 580.215881
22.61 574.967651
22.62 579.064209
22.63 576.870239
22.64 567.007996
22.65 558.060791
22.66 561.932129
22.67 570.934448
22.68 573.53241
22.69 571.566345
22.70 573.762695
22.71 573.174133
22.72 573.19104
22.73 581.234985
22.74 583.716858
22.75 583.190247
22.76 585.095398
22.77 582.495605
22.78 578.456604
22.79 574.245911
22.80 572.817932
22.81 578.424011
22.82 586.568848
22.83 588.389282
22.84 585.819946
22.85 583.890259
22.86 584.363464
22.87 579.196228
22.88 577.73468
22.89 585.136902
22.90 586.887268
22.91 583.124329
22.92 583.377319
22.93 578.509277
22.94 577.226257
22.95 584.92334
22.96 591.335144
22.97 592.090881
22.98 588.92981
22.99 577.556641
23.00 579.670593
23.01 589.079224
23.02 594.932312
23.03 599.239624
23.04 594.639343
23.05 583.374146
23.06 571.276489
23.07 562.075806
23.08 569.329285
23.09 578.612
23.10 583.541382
23.11 584.929138
23.12 581.412781
23.13 580.635071
23.14 583.169983
23.15 580.806458
23.16 581.067993
23.17 593.999817
23.18 593.667664
23.19 587.446899
23.20 591.65686
23.21 593.994385
23.22 592.024048
23.23 591.900452
23.24 593.471191
23.25 599.867188
23.26 604.569153
23.27 602.144226
23.28 600.23053
23.29 601.945435
23.30 597.99646
23.31 595.091187
23.32 594.96759
23.33 596.848633
23.34 596.279053
23.35 591.600159
23.36 591.623535
23.37 588.203064
23.38 584.768738
23.39 586.253723
23.40 589.22937
23.41 589.292603
23.42 595.615723
23.43 598.187622
23.44 594.444824
23.45 597.645081
23.46 590.43689
23.47 588.882202
23.48 597.05127
23.49 597.657104
23.50 600.910461
23.51 612.191528
23.52 623.397278
23.53 632.96051
23.54 629.026184
23.55 612.58667
23.56 598.028992
23.57 592.677429
23.58 605.323669
23.59 613.971558
23.60 616.146484
23.61 613.357971
23.62 604.217529
23.63 600.441772
23.64 597.093323
23.65 597.33844
23.66 602.079956
23.67 608.213867
23.68 607.298889
23.69 601.660156
23.70 593.601379
23.71 590.229431
23.72 596.21637
23.73 600.496704
23.74 603.522034
23.75 602.386536
23.76 592.177307
23.77 593.273987
23.78 600.033386
23.79 597.697937
23.80 595.453186
23.81 597.434265
23.82 596.634277
23.83 597.517639
23.84 594.108154
23.85 594.38208
23.86 600.699585
23.87 603.285095
23.88 604.318237
23.89 609.850647
23.90 606.138428
23.91 601.444153
23.92 602.572754
23.93 611.43158
23.94 607.15741
23.95 599.656616
23.96 600.80719
23.97 599.563477
23.98 600.915161
23.99 607.888916
24.00 615.096497
24.01 618.388611
24.02 614.824463
24.03 611.566589
24.04 620.906921
24.05 624.743286
24.06 614.715576
24.07 604.618591
24.08 601.032227
24.09 601.870605
24.10 602.880493
24.11 597.452576
24.12 597.824951
24.13 604.712708
24.14 609.35907
24.15 613.034485
24.16 606.827454
24.17 601.084473
24.18 607.679077
24.19 610.269287
24.20 603.370361
24.21 598.532776
24.22 598.628967
24.23 595.529358
24.24 601.091553
24.25 613.729248
24.26 620.53949
24.27 628.088562
24.28 620.775085
24.29 605.804138
24.30 602.898254
24.31 606.683167
24.32 606.004333
24.33 606.362976
24.34 604.706604
24.35 610.156494
24.36 616.551575
24.37 613.62854
24.38 619.633118
24.39 625.274353
24.40 618.717896
24.41 616.661926
24.42 615.337402
24.43 617.23291
24.44 615.96106
24.45 614.042236
24.46 615.662354
24.47 618.48999
24.48 615.213257
24.49 617.640747
24.50 623.826599
24.51 619.878662
24.52 615.300598
24.53 621.368042
24.54 621.219238
24.55 616.500488
24.56 617.035278
24.57 619.430542
24.58 620.216309
24.59 618.69696
24.60 617.799377
24.61 619.39093
24.62 620.032654
24.63 617.189514
24.64 618.322083
24.65 617.838745
24.66 622.274353
24.67 623.87738
24.68 623.779053
24.69 626.598328
24.70 616.314819
24.71 606.820374
24.72 607.49823
24.73 615.939148
24.74 624.704529
24.75 623.261414
24.76 612.139465
24.77 606.446106
24.78 609.975708
24.79 615.626221
24.80 617.827393
24.81 617.34729
24.82 613.408386
24.83 617.010559
24.84 626.716492
24.85 627.388123
24.86 626.783997
24.87 623.565308
24.88 618.332336
24.89 615.526855
24.90 611.929138
24.91 606.577087
24.92 612.401978
24.93 614.403015
24.94 614.336304
24.95 615.735779
24.96 617.791382
24.97 617.261841
24.98 620.181458
24.99 624.475647
25.00 629.789368
25.01 627.00647
25.02 619.658386
25.03 608.335022
25.04 596.739136
25.05 591.779114
25.06 592.876465
25.07 601.352722
25.08 613.254944
25.09 624.218384
25.10 628.521851
25.11 621.875793
25.12 623.244263
25.13 624.709351
25.14 626.242126
25.15 625.034363
25.16 619.98291
25.17 614.17334
25.18 610.534424
25.19 612.605347
25.20 617.168152
25.21 618.798218
25.22 617.663696
25.23 616.348633
25.24 612.474548
25.25 612.733276
25.26 615.366699
25.27 614.603149
25.28 619.804138
25.29 619.559509
25.30 620.346313
25.31 622.990417
25.32 630.705994
25.33 631.988281
25.34 622.492249
25.35 612.69043
25.36 618.940796
25.37 617.798706
25.38 614.317261
25.39 618.543396
25.40 625.730225
25.41 629.495117
25.42 623.767273
25.43 618.791077
25.44 611.46051
25.45 613.032166
25.46 623.165283
25.47 619.855225
25.48 617.810303
25.49 619.131226
25.50 624.738647
25.51 628.256287
25.52 627.080322
25.53 627.971436
25.54 628.538635
25.55 617.203918
25.56 610.532654
25.57 620.001404
25.58 625.947815
25.59 625.032715
25.60 623.981323
25.61 612.724548
25.62 612.592529
25.63 615.569031
25.64 611.447021
25.65 604.889954
25.66 605.848145
25.67 618.584473
25.68 624.435669
25.69 619.687561
25.70 620.763855
25.71 617.521179
25.72 613.766968
25.73 614.976563
25.74 622.926331
25.75 623.408875
25.76 610.566711
25.77 605.587402
25.78 608.867615
25.79 607.918396
25.80 612.943359
25.81 613.363037
25.82 608.653381
25.83 609.590515
25.84 611.973633
25.85 618.005554
25.86 615.297546
25.87 609.065552
25.88 608.774414
25.89 611.165222
25.90 617.154968
25.91 620.960327
25.92 617.935059
25.93 612.022461
25.94 611.353577
25.95 612.17926
25.96 613.611084
25.97 619.145447
25.98 621.254089
25.99 620.549072
26.00 617.319702
26.01 612.75061
26.02 611.331482
26.03 614.5047
26.04 614.480896
26.05 612.249756
26.06 610.662659
26.07 617.368164
26.08 624.593689
26.09 620.595581
26.10 610.25531
26.11 614.610168
26.12 620.814514
26.13 622.419373
26.14 624.509155
26.15 622.455688
26.16 622.898315
26.17 619.55426
26.18 612.364563
26.19 608.398621
26.20 606.577881
26.21 606.771301
26.22 610.619995
26.23 609.249023
26.24 601.066956
26.25 605.998779
26.26 616.947937
26.27 616.82666
26.28 619.017517
26.29 624.685913
26.30 623.799683
26.31 624.576111
26.32 621.742188
26.33 613.776062
26.34 602.894287
26.35 598.542297
26.36 595.983337
26.37 601.593872
26.38 608.039612
26.39 605.624451
26.40 604.535095
26.41 600.304504
26.42 603.72998
26.43 615.150452
26.44 624.152283
26.45 619.147705
26.46 608.372009
26.47 604.755127
26.48 604.433105
26.49 605.89801
26.50 609.75061
26.51 606.60614
26.52 601.178406
26.53 599.278381
26.54 609.146729
26.55 615.510742
26.56 612.334106
26.57 600.098083
26.58 598.453979
26.59 607.332825
26.60 613.122375
26.61 612.656433
26.62 606.231018
26.63 603.627502
26.64 599.547913
26.65 598.613708
26.66 595.333008
26.67 595.039124
26.68 595.926758
26.69 598.821472
26.70 598.007446
26.71 600.716919
26.72 604.56781
26.73 603.496582
26.74 608.419067
26.75 612.785889
26.76 616.43219
26.77 618.100464
26.78 619.830994
26.79 617.359924
26.80 618.421936
26.81 610.860107
26.82 606.97229
26.83 611.113403
26.84 615.255981
26.85 620.243042
26.86 619.922241
26.87 612.767761
26.88 606.587036
26.89 601.192932
26.90 601.5354
26.91 602.271729
26.92 602.946777
26.93 605.402039
26.94 603.805908
26.95 604.428101
26.96 603.705017
26.97 605.597046
26.98 612.072449
26.99 607.375305
27.00 606.056763
27.01 605.779663
27.02 601.965881
27.03 607.201416
27.04 606.088196
27.05 597.740295
27.06 600.03241
27.07 594.495789
27.08 595.747253
27.09 603.151367
27.10 607.853333
27.11 610.990051
27.12 608.20636
27.13 604.436401
27.14 608.836426
27.15 610.853333
27.16 605.0896
27.17 593.194031
27.18 596.786072
27.19 601.086731
27.20 598.262268
27.21 601.512268
27.22 604.832581
27.23 600.635864
27.24 599.181458
27.25 598.546082
27.26 594.098999
27.27 594.965271
27.28 598.562195
27.29 603.873657
27.30 602.126587
27.31 603.566956
27.32 603.98645
27.33 596.944946
27.34 594.414124
27.35 594.794312
27.36 593.954651
27.37 591.683289
27.38 591.49469
27.39 589.611328
27.40 589.760254
27.41 596.984253
27.42 601.88269
27.43 605.832764
27.44 604.025146
27.45 594.194519
27.46 593.332703
27.47 597.443115
27.48 602.869629
27.49 607.153625
27.50 604.428589
27.51 609.350525
27.52 615.792725
27.53 613.644409
27.54 615.108276
27.55 613.92157
27.56 605.469116
27.57 599.664063
27.58 600.188416
27.59 600.173401
27.60 601.520386
27.61 597.667908
27.62 593.665466
27.63 593.343994
27.64 599.03363
27.65 600.722107
27.66 602.302917
27.67 603.158142
27.68 601.503174
27.69 605.770386
27.70 611.15271
27.71 614.788574
27.72 613.642578
27.73 614.517212
27.74 618.326172
27.75 622.852295
27.76 617.977722
27.77 614.459412
27.78 615.921631
27.79 615.857117
27.80 614.717102
27.81 612.329163
27.82 605.653381
27.83 604.591309
27.84 607.316101
27.85 613.67041
27.86 615.175232
27.87 609.885437
27.88 608.649231
27.89 609.094299
27.90 618.953918
27.91 624.372925
27.92 631.530579
27.93 642.565979
27.94 639.214111
27.95 632.609192
27.96 633.857178
27.97 631.574707
27.98 638.59137
27.99 644.552856
28.00 643.920105
28.01 642.56189
28.02 639.030762
28.03 639.208313
28.04 646.284668
28.05 657.860107
28.06 666.888
28.07 666.941284
28.08 668.679688
28.09 670.035095
28.10 675.059326
28.11 683.379822
28.12 684.660889
28.13 685.985413
28.14 692.404724
28.15 696.697998
28.16 697.794922
28.17 708.115051
28.18 720.364319
28.19 733.646362
28.20 739.784363
28.21 739.838623
28.22 746.407654
28.23 746.949707
28.24 751.036072
28.25 763.003662
28.26 774.53949
28.27 787.60498
28.28 788.672302
28.29 791.498718
28.30 808.796997
28.31 820.175232
28.32 823.438416
28.33 838.339783
28.34 852.196594
28.35 857.514832
28.36 860.144836
28.37 866.5047
28.38 874.592041
28.39 884.698242
28.40 883.137329
28.41 875.40863
28.42 879.498352
28.43 883.804565
28.44 893.501587
28.45 894.294373
28.46 892.770752
28.47 893.099731
28.48 888.357727
28.49 884.187073
28.50 879.483154
28.51 878.357727
28.52 870.488342
28.53 856.997375
28.54 856.045288
28.55 847.63562
28.56 839.746033
28.57 825.956787
28.58 812.942871
28.59 812.598328
28.60 810.918884
28.61 803.213867
28.62 788.074646
28.63 781.285095
28.64 771.753174
28.65 765.937744
28.66 754.735352
28.67 733.627686
28.68 714.769775
28.69 703.180786
28.70 695.845703
28.71 690.762024
28.72 689.01532
28.73 687.40564
28.74 680.870361
28.75 673.555237
28.76 669.871704
28.77 664.493713
28.78 665.495483
28.79 662.598022
28.80 652.791199
28.81 647.01001
28.82 632.453247
28.83 621.26593
28.84 628.820923
28.85 631.490784
28.86 625.820374
28.87 620.308594
28.88 608.740906
28.89 604.009216
28.90 610.764771
28.91 615.908447
28.92 619.571533
28.93 622.107239
28.94 618.014954
28.95 612.409241
28.96 607.632141
28.97 604.556091
28.98 604.824341
28.99 604.540894
29.00 603.6828
29.01 606.390686
29.02 599.996765
29.03 597.533569
29.04 600.000305
29.05 603.617249
29.06 601.390686
29.07 600.624939
29.08 604.284546
29.09 601.89917
29.10 593.806213
29.11 594.065063
29.12 591.776855
29.13 581.901794
29.14 583.999939
29.15 587.782166
29.16 595.201599
29.17 591.747742
29.18 581.766602
29.19 575.502686
29.20 579.20813
29.21 582.717529
29.22 583.971313
29.23 591.012024
29.24 596.599426
29.25 601.446228
29.26 598.347473
29.27 591.610474
29.28 600.700317
29.29 601.945129
29.30 594.166016
29.31 588.281738
29.32 586.077637
29.33 586.790039
29.34 583.315186
29.35 583.338623
29.36 592.101807
29.37 598.997559
29.38 597.989014
29.39 594.411316
29.40 591.587402
29.41 588.621643
29.42 588.461548
29.43 586.963135
29.44 583.840637
29.45 581.766602
29.46 583.092407
29.47 587.084534
29.48 583.31134
29.49 577.456421
29.50 581.703003
29.51 589.401428
29.52 590.663757
29.53 587.362549
29.54 579.807922
29.55 578.520996
29.56 579.074951
29.57 581.356262
29.58 586.865845
29.59 586.756653
29.60 589.078857
29.61 592.621704
29.62 593.040649
29.63 593.856384
29.64 589.524231
29.65 585.429871
29.66 584.373962
29.67 585.480225
29.68 587.656677
29.69 580.269409
29.70 575.613708
29.71 579.286926
29.72 583.704773
29.73 583.096069
29.74 581.577576
29.75 576.633606
29.76 570.42981
29.77 568.703003
29.78 579.795898
29.79 590.694031
29.80 588.350037
29.81 579.338745
29.82 571.599121
29.83 569.887573
29.84 576.003235
29.85 583.624878
29.86 583.416382
29.87 585.581543
29.88 585.460571
29.89 582.475769
29.90 579.242249
29.91 574.566345
29.92 576.358887
29.93 577.436951
29.94 573.032043
29.95 566.822327
29.96 560.776062
29.97 564.893311
29.98 572.117615
29.99 579.412903
30.00 578.53363
30.01 574.94458
30.02 568.880127
30.03 560.61676
30.04 560.825439
30.05 563.693176
30.06 559.810547
30.07 559.083801
30.08 558.534241
30.09 563.918945
30.10 577.73291
30.11 586.118042
30.12 580.816711
30.13 576.045227
30.14 577.358154
30.15 576.014587
30.16 572.951294
30.17 576.378479
30.18 573.050293
30.19 570.808533
30.20 570.168518
30.21 568.773865
30.22 569.365417
30.23 567.571533
30.24 564.603088
30.25 567.385376
30.26 568.928223
30.27 573.620789
30.28 571.388245
30.29 572.737732
30.30 575.499146
30.31 569.993896
30.32 570.148804
30.33 574.496521
30.34 576.772827
30.35 577.434998
30.36 576.467896
30.37 572.091431
30.38 573.06842
30.39 573.888
30.40 573.395508
30.41 580.412842
30.42 582.47937
30.43 576.550964
30.44 569.436646
30.45 562.575684
30.46 568.107971
30.47 570.928467
30.48 571.646484
30.49 570.523682
30.50 569.119934
30.51 571.27533
30.52 574.824524
30.53 575.627258
30.54 572.897583
30.55 573.145203
30.56 570.930969
30.57 568.421997
30.58 567.891357
30.59 565.095398
30.60 571.867188
30.61 577.488953
30.62 568.786133
30.63 564.817749
30.64 565.220703
30.65 564.278748
30.66 563.871948
30.67 563.606628
30.68 565.006348
30.69 560.189392
30.70 563.566467
30.71 561.839722
30.72 560.831909
30.73 565.836365
30.74 569.444641
30.75 567.703979
30.76 570.967529
30.77 569.865173
30.78 565.768066
30.79 560.460144
30.80 566.491516
30.81 569.134277
30.82 571.554077
30.83 580.223633
30.84 571.628845
30.85 557.043945
30.86 562.351318
30.87 568.775024
30.88 572.071167
30.89 568.75293
30.90 559.602356
30.91 568.665833
30.92 580.34082
30.93 582.941162
30.94 581.004761
30.95 582.734619
30.96 577.926086
30.97 579.087463
30.98 581.289856
30.99 572.697937
31.00 574.514709
31.01 576.40686
31.02 578.345398
31.03 583.47467
31.04 583.864075
31.05 585.897522
31.06 588.577332
31.07 584.084717
31.08 577.341492
31.09 579.558044
31.10 586.581848
31.11 593.441895
31.12 597.708435
31.13 594.2323
31.14 593.044678
31.15 592.729065
31.16 588.890564
31.17 586.078308
31.18 587.816345
31.19 587.840393
31.20 586.178772
31.21 584.061523
31.22 584.434326
31.23 587.346191
31.24 593.05365
31.25 594.837708
31.26 591.045105
31.27 587.917603
31.28 587.953064
31.29 585.25708
31.30 583.122009
31.31 582.190552
31.32 578.788574
31.33 574.2323
31.34 578.611023
31.35 589.172363
31.36 598.320374
31.37 602.997986
31.38 600.927185
31.39 596.275452
31.40 595.970093
31.41 591.886902
31.42 589.652283
31.43 591.994019
31.44 589.949097
31.45 582.795288
31.46 570.252441
31.47 564.486572
31.48 568.273438
31.49 574.156677
31.50 580.452393
31.51 589.974304
31.52 594.40155
31.53 589.415649
31.54 583.405823
31.55 585.75708
31.56 603.609131
31.57 610.10437
31.58 608.076477
31.59 606.392151
31.60 598.062134
31.61 596.864929
31.62 604.49054
31.63 607.362488
31.64 607.373718
31.65 615.931458
31.66 616.572021
31.67 615.74231
31.68 620.548157
31.69 620.371399
31.70 616.254944
31.71 617.665161
31.72 620.73584
31.73 624.719421
31.74 628.943787
31.75 628.13739
31.76 628.999023
31.77 625.692261
31.78 628.963257
31.79 632.403625
31.80 632.299622
31.81 634.118958
31.82 642.304504
31.83 642.279297
31.84 637.196167
31.85 640.337585
31.86 646.113159
31.87 647.211243
31.88 649.027344
31.89 654.169922
31.90 651.854065
31.91 651.09491
31.92 650.981812
31.93 643.321045
31.94 636.144714
31.95 633.677979
31.96 633.433411
31.97 635.370361
31.98 633.779053
31.99 636.568237
32.00 636.628723
32.01 631.473389
32.02 626.427307
32.03 621.123474
32.04 617.177551
32.05 614.134827
32.06 604.406189
32.07 601.144836
32.08 603.75946
32.09 599.580139
32.10 596.220886
32.11 604.879883
32.12 607.444275
32.13 590.06189
32.14 579.035889
32.15 580.198914
32.16 585.755066
32.17 592.754395
32.18 595.635925
32.19 588.441589
32.20 584.970215
32.21 581.663391
32.22 577.806885
32.23 570.874878
32.24 566.832458
32.25 567.603088
32.26 561.734863
32.27 560.579041
32.28 562.763611
32.29 554.959229
32.30 555.970154
32.31 554.334656
32.32 549.817932
32.33 544.824463
32.34 535.820923
32.35 536.086731
32.36 537.803833
32.37 539.583679
32.38 538.592468
32.39 539.411072
32.40 545.944702
32.41 544.360535
32.42 533.313293
32.43 527.766418
32.44 525.574707
32.45 518.571716
32.46 517.056396
32.47 516.886292
32.48 517.010437
32.49 517.586182
32.50 520.789673
32.51 527.917725
32.52 526.845398
32.53 522.256287
32.54 521.203064
32.55 524.164795
32.56 522.814331
32.57 518.490784
32.58 521.189819
32.59 524.436523
32.60 518.894531
32.61 516.2005
32.62 522.894897
32.63 527.683716
32.64 527.784546
32.65 526.318848
32.66 522.402161
32.67 518.599609
32.68 519.137146
32.69 515.515686
32.70 517.706177
32.71 517.123535
32.72 517.393494
32.73 521.870544
32.74 516.459534
32.75 507.475769
32.76 510.163849
32.77 512.714233
32.78 509.834778
32.79 516.599487
32.80 521.638611
32.81 514.518005
32.82 506.367523
32.83 510.573303
32.84 516.664612
32.85 519.841614
32.86 512.687195
32.87 513.47168
32.88 516.074463
32.89 513.571594
32.90 507.59964
32.91 506.726196
32.92 514.266052
32.93 516.483093
32.94 510.522491
32.95 507.783539
32.96 506.163086
32.97 500.81778
32.98 502.258514
32.99 506.536957
33.00 514.7146
33.01 515.1651
33.02 516.17218
33.03 517.249023
33.04 510.891998
33.05 506.118225
33.06 502.459351
33.07 502.162781
33.08 501.623962
33.09 498.672791
33.10 500.922211
33.11 503.750305
33.12 502.787231
33.13 499.420868
33.14 495.818787
33.15 487.656799
33.16 488.322723
33.17 495.921753
33.18 497.549255
33.19 493.300201
33.20 489.831573
33.21 491.386353
33.22 497.884369
33.23 500.917999
33.24 501.695984
33.25 503.430328
33.26 504.926941
33.27 503.705627
33.28 497.297455
33.29 499.173523
33.30 498.10611
33.31 488.741882
33.32 483.106842
33.33 483.700806
33.34 485.902069
33.35 486.514313
33.36 486.247223
33.37 487.228333
33.38 491.153778
33.39 492.273895
33.40 489.609375
33.41 487.880493
33.42 485.768219
33.43 483.260712
33.44 484.595215
33.45 482.865875
33.46 479.822998
33.47 484.074402
33.48 487.419678
33.49 488.779053
33.50 485.701477
33.51 480.300903
33.52 484.479004
33.53 486.493591
33.54 479.155884
33.55 478.194824
33.56 486.251953
33.57 488.590332
33.58 489.125732
33.59 497.853363
33.60 501.464966
33.61 497.149902
33.62 492.786224
33.63 487.591644
33.64 481.855164
33.65 478.019348
33.66 472.885345
33.67 465.772064
33.68 473.245056
33.69 475.733459
33.70 472.496948
33.71 475.61853
33.72 477.634918
33.73 477.485596
33.74 471.714905
33.75 467.478699
33.76 474.782837
33.77 481.956146
33.78 476.92749
33.79 476.287231
33.80 475.642883
33.81 473.840027
33.82 482.645691
33.83 486.905823
33.84 484.571655
33.85 476.509369
33.86 466.303589
33.87 462.289734
33.88 466.061523
33.89 462.099213
33.90 458.472504
33.91 462.384552
33.92 464.420166
33.93 462.60672
33.94 464.355957
33.95 471.243256
33.96 469.666229
33.97 469.546967
33.98 467.989746
33.99 467.565796
34.00 459.144257
34.01 450.952606
34.02 456.621857
34.03 464.182007
34.04 467.748932
34.05 467.275299
34.06 469.233063
34.07 473.104279
34.08 474.189911
34.09 471.37146
34.10 470.066559
34.11 461.407257
34.12 461.667053
34.13 466.018494
34.14 471.47406
34.15 480.45871
34.16 478.104858
34.17 467.827057
34.18 466.937592
34.19 466.757568
34.20 472.865875
34.21 474.738495
34.22 468.973328
34.23 464.129089
34.24 460.536072
34.25 458.291077
34.26 460.89566
34.27 462.095917
34.28 460.074982
34.29 458.568237
34.30 457.349823
34.31 459.230896
34.32 461.931824
34.33 461.820587
34.34 459.863617
34.35 460.859955
34.36 465.334991
34.37 467.244415
34.38 466.063751
34.39 459.641083
34.40 462.27478
34.41 465.855072
34.42 462.546478
34.43 460.913452
34.44 457.082581
34.45 455.567535
34.46 454.869141
34.47 460.688904
34.48 467.017639
34.49 465.229553
34.50 456.912109
34.51 456.901733
34.52 461.117188
34.53 461.687317
34.54 457.140411
34.55 453.197937
34.56 455.148041
34.57 454.640747
34.58 449.9151
34.59 449.174164
34.60 452.05014
34.61 452.378632
34.62 455.443848
34.63 457.821289
34.64 458.343933
34.65 460.409271
34.66 461.461151
34.67 460.186615
34.68 458.274323
34.69 459.249512
34.70 466.667969
34.71 474.197296
34.72 473.918701
34.73 469.392975
34.74 466.764221
34.75 464.788849
34.76 459.866852
34.77 460.572845
34.78 467.341339
34.79 466.383453
34.80 463.001648
34.81 463.92276
34.82 460.829376
34.83 464.796295
34.84 466.310089
34.85 462.71991
34.86 463.692902
34.87 460.741089
34.88 459.273682
34.89 456.165527
34.90 454.846649
34.91 460.618958
34.92 464.317169
34.93 462.687836
34.94 458.222168
34.95 454.802155
34.96 462.236145
34.97 465.844299
34.98 467.729431
34.99 472.830719
35.00 469.257294
35.01 465.360138
35.02 467.67691
35.03 467.419281
35.04 467.092377
35.05 460.694824
35.06 457.597443
35.07 456.012085
35.08 454.783386
35.09 458.480011
35.10 457.493561
35.11 453.777252
35.12 455.917664
35.13 453.050537
35.14 450.980225
35.15 453.113556
35.16 454.064697
35.17 453.376831
35.18 451.288605
35.19 456.103912
35.20 456.024719
35.21 451.661652
35.22 450.936523
35.23 449.395203
35.24 450.972778
35.25 449.694153
35.26 445.460846
35.27 440.582886
35.28 437.207184
35.29 438.906372
35.30 437.594727
35.31 434.900726
35.32 436.69519
35.33 440.142639
35.34 441.686584
35.35 438.743713
35.36 434.551819
35.37 429.619812
35.38 428.109589
35.39 434.781342
35.40 439.038177
35.41 441.402222
35.42 440.700134
35.43 430.466278
35.44 425.141571
35.45 424.383575
35.46 424.695221
35.47 424.027283
35.48 421.741364
35.49 420.453339
35.50 424.370758
35.51 428.474518
35.52 426.770325
35.53 428.496429
35.54 423.711334
35.55 415.669617
35.56 419.810944
35.57 424.843445
35.58 424.450897
35.59 425.327576
35.60 428.657104
35.61 425.599579
35.62 416.937622
35.63 417.093842
35.64 420.457611
35.65 418.744629
35.66 416.08783
35.67 411.791473
35.68 414.783661
35.69 414.57962
35.70 410.88324
35.71 405.253784
35.72 404.907898
35.73 404.62616
35.74 409.962891
35.75 419.886719
35.76 421.56778
35.77 420.324707
35.78 425.043427
35.79 423.857452
35.80 421.404205
35.81 418.882446
35.82 414.658142
35.83 415.363312
35.84 416.205872
35.85 411.314697
35.86 406.493042
35.87 407.292145
35.88 411.79483
35.89 412.350494
35.90 406.665924
35.91 403.109833
35.92 399.794891
35.93 401.352661
35.94 401.563538
35.95 398.916382
35.96 400.705292
35.97 399.256439
35.98 398.492706
35.99 398.385742
36.00 397.894775
36.01 402.039642
36.02 406.877472
36.03 411.478577
36.04 414.021606
36.05 408.844269
36.06 406.31543
36.07 406.479126
36.08 406.27243
36.09 407.412109
36.10 403.498077
36.11 399.912994
36.12 401.988861
36.13 404.734528
36.14 406.690247
36.15 401.934692
36.16 398.376068
36.17 398.817261
36.18 398.634674
36.19 400.915985
36.20 399.917847
36.21 401.198547
36.22 403.680756
36.23 400.475708
36.24 399.961334
36.25 398.528107
36.26 400.516418
36.27 398.554657
36.28 395.822052
36.29 394.64444
36.30 392.646576
36.31 391.933685
36.32 392.063538
36.33 394.850891
36.34 401.780579
36.35 400.182312
36.36 392.196167
36.37 392.363892
36.38 388.168335
36.39 384.550903
36.40 389.188599
36.41 395.387115
36.42 396.947235
36.43 393.331726
36.44 386.86557
36.45 387.605347
36.46 389.386383
36.47 394.315948
36.48 395.000092
36.49 388.209686
36.50 389.447632
36.51 392.959473
36.52 395.558258
36.53 390.65094
36.54 389.1427
36.55 391.067291
36.56 387.261322
36.57 387.19104
36.58 384.358429
36.59 378.773315
36.60 379.905945
36.61 382.515625
36.62 386.97702
36.63 390.479919
36.64 391.784363
36.65 394.388519
36.66 389.765259
36.67 386.573151
36.68 387.575928
36.69 384.836273
36.70 385.430206
36.71 384.728638
36.72 380.886017
36.73 383.356628
36.74 389.303772
36.75 381.95517
36.76 374.117828
36.77 372.760559
36.78 372.416534
36.79 370.809021
36.80 375.79892
36.81 378.936676
36.82 379.350616
36.83 378.417328
36.84 373.739929
36.85 375.123108
36.86 377.547485
36.87 376.500092
36.88 375.877289
36.89 381.300537
36.90 383.351532
36.91 376.632477
36.92 370.190796
36.93 367.417847
36.94 367.140778
36.95 373.025238
36.96 375.667542
36.97 376.79657
36.98 377.702454
36.99 375.836823
37.00 373.178375
37.01 373.507355
37.02 373.208527
37.03 373.286957
37.04 377.385529
37.05 373.197266
37.06 370.591675
37.07 373.811127
37.08 371.11377
37.09 370.172241
37.10 374.34079
37.11 372.726807
37.12 368.839996
37.13 370.236115
37.14 372.109467
37.15 372.554718
37.16 373.895447
37.17 373.117371
37.18 367.927948
37.19 369.131348
37.20 370.881317
37.21 371.444611
37.22 373.565369
37.23 375.318665
37.24 373.463867
37.25 369.114594
37.26 366.343445
37.27 365.059662
37.28 366.055054
37.29 369.125244
37.30 365.707794
37.31 366.8526
37.32 373.891876
37.33 368.56134
37.34 367.55835
37.35 369.908936
37.36 368.281525
37.37 369.961212
37.38 368.957947
37.39 369.991119
37.40 373.340698
37.41 368.704224
37.42 363.570679
37.43 362.861847
37.44 364.628174
37.45 357.978577
37.46 354.367371
37.47 363.939789
37.48 370.223969
37.49 371.966766
37.50 372.003479
37.51 367.436554
37.52 364.849579
37.53 365.877686
37.54 366.627075
37.55 369.347321
37.56 373.381256
37.57 367.609009
37.58 356.602478
37.59 357.284149
37.60 359.733429
37.61 356.872711
37.62 359.994324
37.63 362.053314
37.64 358.360931
37.65 361.717468
37.66 362.862732
37.67 359.22699
37.68 357.994141
37.69 356.768402
37.70 354.110901
37.71 351.071259
37.72 353.222656
37.73 360.249573
37.74 366.241943
37.75 368.383118
37.76 365.325104
37.77 361.973114
37.78 362.18985
37.79 359.452576
37.80 365.484497
37.81 370.360046
37.82 365.935516
37.83 362.027466
37.84 356.267944
37.85 356.722809
37.86 360.657867
37.87 359.086975
37.88 362.206848
37.89 363.773804
37.90 362.167877
37.91 360.988434
37.92 354.666656
37.93 352.842438
37.94 354.916138
37.95 353.381348
37.96 353.62149
37.97 354.310516
37.98 356.542084
37.99 361.043121
38.00 359.771637
38.01 357.748077
38.02 356.133118
38.03 355.878113
38.04 355.180786
38.05 357.002502
38.06 354.281311
38.07 349.411041
38.08 350.043152
38.09 356.232147
38.10 361.004517
38.11 355.552887
38.12 351.297699
38.13 354.18277
38.14 353.61084
38.15 351.269226
38.16 351.444946
38.17 352.805542
38.18 354.111176
38.19 353.387695
38.20 348.982666
38.21 346.563019
38.22 345.44812
38.23 348.515533
38.24 353.9599
38.25 355.78833
38.26 354.875061
38.27 357.170685
38.28 355.720551
38.29 359.164093
38.30 362.924652
38.31 362.437469
38.32 360.482422
38.33 360.88736
38.34 359.424011
38.35 353.870483
38.36 353.778168
38.37 355.477417
38.38 357.678589
38.39 355.409973
38.40 349.710938
38.41 350.04657
38.42 354.017365
38.43 360.816681
38.44 360.609619
38.45 355.01767
38.46 361.210144
38.47 359.772827
38.48 351.360504
38.49 351.19986
38.50 355.778046
38.51 357.130402
38.52 355.83139
38.53 351.611603
38.54 352.37323
38.55 354.599579
38.56 352.496582
38.57 354.243652
38.58 356.158356
38.59 353.401611
38.60 353.33783
38.61 355.415253
38.62 355.070435
38.63 353.615112
38.64 356.605621
38.65 355.352417
38.66 351.867065
38.67 354.257263
38.68 356.986053
38.69 351.889679
38.70 350.906311
38.71 355.453644
38.72 355.153931
38.73 351.973633
38.74 350.347595
38.75 350.264709
38.76 350.052521
38.77 350.739441
38.78 352.856384
38.79 356.568268
38.80 356.96405
38.81 353.389526
38.82 352.560699
38.83 348.962524
38.84 340.3125
38.85 341.359497
38.86 346.975616
38.87 347.509888
38.88 342.456207
38.89 342.373291
38.90 343.578369
38.91 344.904907
38.92 343.691467
38.93 344.890533
38.94 353.100647
38.95 347.11734
38.96 340.358856
38.97 341.827942
38.98 346.251862
38.99 347.075439
39.00 343.223419
39.01 342.066803
39.02 336.657471
39.03 337.735229
39.04 343.668579
39.05 349.245331
39.06 351.527313
39.07 349.395721
39.08 349.308838
39.09 348.131927
39.10 347.370148
39.11 347.693085
39.12 344.812073
39.13 342.089935
39.14 343.478821
39.15 344.554443
39.16 343.445129
39.17 343.559967
39.18 343.989197
39.19 345.583618
39.20 343.585785
39.21 341.354584
39.22 343.139587
39.23 343.271423
39.24 342.539978
39.25 346.572205
39.26 351.255524
39.27 353.144806
39.28 353.782593
39.29 354.387787
39.30 349.370483
39.31 341.845947
39.32 339.582001
39.33 342.041351
39.34 346.742584
39.35 350.554413
39.36 348.184967
39.37 341.542114
39.38 341.254333
39.39 344.484924
39.40 347.129608
39.41 350.167999
39.42 347.961212
39.43 351.157623
39.44 353.003174
39.45 351.100098
39.46 346.640808
39.47 343.553833
39.48 346.598633
39.49 349.569702
39.50 347.35611
39.51 342.042206
39.52 343.010895
39.53 350.909973
39.54 356.043182
39.55 353.445404
39.56 353.54361
39.57 345.916138
39.58 341.321381
39.59 342.564423
39.60 340.900452
39.61 341.660583
39.62 343.934845
39.63 344.153046
39.64 346.803894
39.65 348.324219
39.66 344.515961
39.67 344.228424
39.68 346.455566
39.69 347.277191
39.70 347.315552
39.71 344.910339
39.72 341.955841
39.73 341.193481
39.74 340.844971
39.75 338.929871
39.76 336.99881
39.77 334.79715
39.78 335.731659
39.79 340.441803
39.80 341.059448
39.81 340.509735
39.82 342.409943
39.83 342.660278
39.84 340.526855
39.85 345.487549
39.86 344.136139
39.87 332.005524
39.88 330.374481
39.89 339.356079
39.90 339.162598
39.91 334.64859
39.92 334.476074
39.93 333.333405
39.94 332.293213
39.95 340.318268
39.96 342.745392
39.97 338.965118
39.98 337.930115
39.99 336.208099
40.00 336.989227
40.01 343.536713
40.02 351.085907
40.03 346.979279
40.04 342.682953
40.05 344.21994
40.06 343.445099
40.07 341.13443
40.08 340.395508
40.09 342.477264
40.10 343.133606
40.11 347.598419
40.12 345.220245
40.13 341.163788
40.14 342.095734
40.15 338.696991
40.16 335.462952
40.17 338.6716
40.18 341.39093
40.19 337.036255
40.20 338.96167
40.21 343.38269
40.22 342.307465
40.23 344.052338
40.24 347.589294
40.25 342.094574
40.26 339.458588
40.27 345.463898
40.28 345.881775
40.29 348.070709
40.30 353.311066
40.31 350.450409
40.32 354.900421
40.33 360.321228
40.34 355.237579
40.35 354.696777
40.36 353.761566
40.37 351.295288
40.38 354.025848
40.39 352.808258
40.40 349.212982
40.41 347.325226
40.42 344.521271
40.43 348.613434
40.44 352.483856
40.45 352.089935
40.46 351.197296
40.47 354.62674
40.48 361.049561
40.49 359.318451
40.50 354.197571
40.51 353.126373
40.52 351.227325
40.53 352.865112
40.54 354.255951
40.55 353.093384
40.56 359.674438
40.57 364.591827
40.58 365.76297
40.59 370.526123
40.60 368.882965
40.61 361.989136
40.62 362.111389
40.63 368.371063
40.64 363.208588
40.65 354.444519
40.66 349.988129
40.67 347.413635
40.68 350.975006
40.69 352.930054
40.70 354.894897
40.71 359.428925
40.72 359.903778
40.73 358.859711
40.74 361.546509
40.75 364.704803
40.76 361.407104
40.77 360.344208
40.78 362.140228
40.79 361.809509
40.80 361.391205
40.81 362.661743
40.82 360.026398
40.83 356.048431
40.84 352.553558
40.85 350.198517
40.86 351.570221
40.87 361.354797
40.88 366.284241
40.89 362.10257
40.90 355.462219
40.91 346.168793
40.92 340.60907
40.93 345.187805
40.94 345.66449
40.95 342.309875
40.96 347.795868
40.97 352.775269
40.98 351.535034
40.99 347.172302
41.00 347.456573
41.01 350.84198
41.02 349.442719
41.03 346.575623
41.04 348.877075
41.05 347.564941
41.06 346.917084
41.07 352.531036
41.08 351.138336
41.09 343.90741
41.10 344.444855
