!@!!GADDS PLOTSO FILE: Chi integration type
!@!!Title/SampleName: ML_MAPbX3
!@!!User: NREL
!@!!Site: NREL SERF C211; SN 2510
!@!!Frame: 081022_MLProject_000_008.gfrm
!@!!Wavelengths    1.54184   1.54056   1.54439
!@!!Frame angles: 2Theta: 28.000 Omega: 5.000 Phi: 0.000 Chi: 90.000
!@!!Integration range: 2Theta: 10.000 to 41.100  Gamma: -120.400 to -60.400
!@!!Integration method: bin normalized
!@!N
!@!SS
!@!M
!@!L 0.0 0.0 0.0 0.0
!@!XDegrees
!@!YCounts
10.00 229.771103
10.01 224.574844
10.02 220.548737
10.03 224.563019
10.04 232.46907
10.05 239.305511
10.06 234.721924
10.07 230.923553
10.08 233.120422
10.09 225.944382
10.10 227.097153
10.11 232.017181
10.12 224.15799
10.13 223.654236
10.14 229.024994
10.15 234.222214
10.16 232.16626
10.17 225.035614
10.18 237.968643
10.19 241.563293
10.20 237.479355
10.21 240.902817
10.22 237.886429
10.23 229.7742
10.24 233.603943
10.25 232.438324
10.26 225.436569
10.27 223.965363
10.28 222.372665
10.29 227.578995
10.30 236.864136
10.31 239.360367
10.32 238.817215
10.33 241.978027
10.34 246.045227
10.35 242.288864
10.36 232.35054
10.37 225.559357
10.38 223.481003
10.39 227.785049
10.40 235.193573
10.41 245.349213
10.42 249.064026
10.43 245.09552
10.44 243.525375
10.45 245.68988
10.46 238.277435
10.47 234.866272
10.48 241.374054
10.49 246.892059
10.50 245.545944
10.51 234.846817
10.52 230.854416
10.53 232.36644
10.54 237.40567
10.55 247.469864
10.56 248.984543
10.57 248.25589
10.58 249.122772
10.59 247.191269
10.60 239.80275
10.61 238.636551
10.62 248.386154
10.63 256.656586
10.64 251.925522
10.65 245.084183
10.66 234.133713
10.67 230.462997
10.68 238.920532
10.69 242.195511
10.70 248.313263
10.71 249.985184
10.72 246.151764
10.73 248.312241
10.74 256.018494
10.75 253.137726
10.76 246.717606
10.77 246.709854
10.78 238.72789
10.79 228.94989
10.80 231.694962
10.81 239.883987
10.82 236.448395
10.83 230.385559
10.84 237.539719
10.85 242.503128
10.86 251.622101
10.87 263.254242
10.88 259.137207
10.89 247.145599
10.90 243.15657
10.91 250.487717
10.92 255.763672
10.93 259.592316
10.94 260.42981
10.95 252.25975
10.96 242.21524
10.97 237.132584
10.98 237.076172
10.99 235.630798
11.00 236.104538
11.01 245.780746
11.02 249.98114
11.03 253.401871
11.04 259.774048
11.05 253.890488
11.06 243.823929
11.07 242.173874
11.08 245.00174
11.09 242.564102
11.10 242.56459
11.11 245.733353
11.12 247.991058
11.13 246.645447
11.14 253.127747
11.15 265.389832
11.16 257.622437
11.17 253.966248
11.18 257.062561
11.19 253.516357
11.20 253.029617
11.21 252.966827
11.22 255.856781
11.23 258.002899
11.24 252.508972
11.25 244.468872
11.26 246.711487
11.27 253.706696
11.28 255.85997
11.29 261.018433
11.30 259.220795
11.31 255.929276
11.32 256.513062
11.33 255.846008
11.34 253.656281
11.35 252.855835
11.36 257.783936
11.37 249.665756
11.38 241.783157
11.39 246.650604
11.40 251.972321
11.41 258.426514
11.42 259.251984
11.43 255.132721
11.44 255.291809
11.45 259.415894
11.46 259.78421
11.47 255.415283
11.48 261.293701
11.49 266.502716
11.50 262.665405
11.51 255.518219
11.52 253.797501
11.53 256.414398
11.54 262.157867
11.55 270.734772
11.56 263.48288
11.57 254.359268
11.58 258.44928
11.59 257.379303
11.60 259.947144
11.61 256.288086
11.62 256.758484
11.63 269.652191
11.64 274.759979
11.65 271.470795
11.66 265.012085
11.67 268.890533
11.68 271.28302
11.69 266.323151
11.70 262.190399
11.71 266.243073
11.72 271.016052
11.73 276.729706
11.74 275.111511
11.75 271.466278
11.76 272.045227
11.77 269.505768
11.78 271.284149
11.79 273.345459
11.80 273.013794
11.81 271.883698
11.82 269.551422
11.83 273.321655
11.84 273.267914
11.85 271.600098
11.86 273.139252
11.87 274.365021
11.88 274.323212
11.89 269.044373
11.90 264.863861
11.91 277.393646
11.92 287.746857
11.93 289.010895
11.94 288.33551
11.95 280.528015
11.96 276.071747
11.97 275.791748
11.98 276.708984
11.99 282.321625
12.00 288.648834
12.01 290.314331
12.02 291.043396
12.03 290.975586
12.04 283.441864
12.05 287.093353
12.06 296.145599
12.07 293.059998
12.08 286.592285
12.09 291.15097
12.10 304.661987
12.11 310.627502
12.12 319.19165
12.13 319.100922
12.14 316.963989
12.15 318.801758
12.16 313.05658
12.17 316.490082
12.18 317.99054
12.19 320.108429
12.20 324.230896
12.21 322.682251
12.22 328.800171
12.23 336.914764
12.24 329.768433
12.25 328.234497
12.26 336.848694
12.27 343.436279
12.28 336.101257
12.29 333.407837
12.30 341.726715
12.31 348.790436
12.32 345.55545
12.33 350.09314
12.34 360.986938
12.35 367.657379
12.36 373.015381
12.37 375.784027
12.38 369.870422
12.39 375.367798
12.40 374.388428
12.41 363.263397
12.42 373.58667
12.43 384.684174
12.44 387.999817
12.45 396.742859
12.46 404.344727
12.47 414.330627
12.48 422.030792
12.49 422.238953
12.50 427.145599
12.51 418.832153
12.52 410.337128
12.53 416.004211
12.54 407.402527
12.55 401.792328
12.56 409.99353
12.57 413.509857
12.58 413.865936
12.59 416.175385
12.60 420.191071
12.61 429.503601
12.62 432.041748
12.63 426.057861
12.64 422.473145
12.65 418.503784
12.66 409.382996
12.67 405.218201
12.68 407.392334
12.69 405.369049
12.70 398.348633
12.71 388.43158
12.72 376.183807
12.73 371.74469
12.74 369.562408
12.75 369.36554
12.76 366.195679
12.77 362.367035
12.78 364.12677
12.79 356.311035
12.80 356.017853
12.81 350.946106
12.82 342.147644
12.83 342.477325
12.84 347.954254
12.85 341.072876
12.86 332.559235
12.87 329.568726
12.88 328.994049
12.89 332.132721
12.90 332.355133
12.91 330.859924
12.92 335.46521
12.93 325.98642
12.94 315.14621
12.95 305.893524
12.96 294.258209
12.97 294.045685
12.98 296.902802
12.99 303.19339
13.00 305.909729
13.01 308.893158
13.02 311.155396
13.03 306.753204
13.04 297.861969
13.05 302.794281
13.06 307.7146
13.07 303.084686
13.08 290.320343
13.09 292.777924
13.10 300.546844
13.11 300.669769
13.12 306.887756
13.13 306.653809
13.14 292.392548
13.15 280.687927
13.16 283.049164
13.17 286.428528
13.18 293.671082
13.19 301.459717
13.20 304.225128
13.21 299.828186
13.22 293.768829
13.23 294.831696
13.24 290.351929
13.25 288.96051
13.26 295.425842
13.27 294.271454
13.28 298.299377
13.29 300.837158
13.30 297.730377
13.31 297.073486
13.32 302.57605
13.33 308.583344
13.34 314.157745
13.35 319.487823
13.36 312.449585
13.37 312.660706
13.38 321.602051
13.39 315.969452
13.40 310.094116
13.41 306.789063
13.42 301.688354
13.43 295.046478
13.44 294.378723
13.45 300.12384
13.46 298.849854
13.47 292.170349
13.48 292.802734
13.49 293.894073
13.50 296.586426
13.51 301.0755
13.52 299.332458
13.53 300.902985
13.54 312.108673
13.55 314.620789
13.56 317.242828
13.57 313.741089
13.58 305.112396
13.59 308.820099
13.60 316.297424
13.61 316.158752
13.62 315.482117
13.63 315.055115
13.64 315.623199
13.65 317.520355
13.66 324.60556
13.67 336.485291
13.68 342.160522
13.69 344.193146
13.70 345.80899
13.71 346.825348
13.72 336.481506
13.73 335.408051
13.74 338.423767
13.75 341.755066
13.76 341.465942
13.77 338.96167
13.78 339.369446
13.79 340.86554
13.80 352.250763
13.81 367.389801
13.82 367.283081
13.83 357.33197
13.84 352.116241
13.85 357.30246
13.86 370.995667
13.87 373.739105
13.88 379.315796
13.89 392.806488
13.90 398.837494
13.91 397.982697
13.92 394.784058
13.93 399.849304
13.94 403.0867
13.95 404.603607
13.96 420.013184
13.97 430.923401
13.98 441.605927
13.99 443.806244
14.00 437.123352
14.01 433.426056
14.02 441.968262
14.03 453.880219
14.04 465.052216
14.05 484.238403
14.06 499.389954
14.07 514.290833
14.08 515.485474
14.09 516.30957
14.10 528.169983
14.11 540.394226
14.12 540.407959
14.13 548.529602
14.14 555.662781
14.15 578.164856
14.16 598.332153
14.17 608.219116
14.18 615.674438
14.19 617.382813
14.20 625.679016
14.21 649.563049
14.22 667.462891
14.23 675.862305
14.24 689.502563
14.25 697.999939
14.26 708.399231
14.27 723.705627
14.28 746.74823
14.29 753.128479
14.30 758.147522
14.31 767.283264
14.32 784.253845
14.33 795.181396
14.34 809.759766
14.35 823.79071
14.36 835.809448
14.37 841.246826
14.38 846.484131
14.39 853.521973
14.40 868.467102
14.41 879.776672
14.42 890.264038
14.43 898.465271
14.44 883.37439
14.45 856.786316
14.46 836.558533
14.47 826.244446
14.48 826.937195
14.49 817.078674
14.50 807.642395
14.51 805.200867
14.52 797.028625
14.53 790.217468
14.54 788.624878
14.55 770.945435
14.56 755.907715
14.57 749.30426
14.58 744.365295
14.59 723.663269
14.60 702.718201
14.61 705.41095
14.62 698.979858
14.63 690.597717
14.64 686.039429
14.65 683.062195
14.66 686.382813
14.67 674.028137
14.68 662.885742
14.69 657.932556
14.70 643.564087
14.71 637.632385
14.72 643.694946
14.73 651.503418
14.74 660.100159
14.75 673.059387
14.76 675.296082
14.77 669.484375
14.78 669.151672
14.79 664.684937
14.80 666.207764
14.81 672.503723
14.82 671.844299
14.83 675.928894
14.84 681.555908
14.85 680.450623
14.86 684.393982
14.87 713.882935
14.88 718.637512
14.89 722.771912
14.90 730.958557
14.91 714.719116
14.92 701.474121
14.93 710.133545
14.94 729.628784
14.95 735.293152
14.96 740.004395
14.97 752.696838
14.98 761.747192
14.99 765.139282
15.00 767.832153
15.01 758.451538
15.02 762.105713
15.03 774.302002
15.04 781.229797
15.05 787.671631
15.06 794.211914
15.07 804.825928
15.08 800.348816
15.09 793.907104
15.10 797.031677
15.11 802.546204
15.12 794.534668
15.13 781.955261
15.14 780.825989
15.15 768.520935
15.16 754.319153
15.17 749.835571
15.18 749.929199
15.19 735.198486
15.20 724.284302
15.21 707.579468
15.22 696.77832
15.23 685.439941
15.24 669.65387
15.25 650.086731
15.26 645.371887
15.27 633.416382
15.28 614.714233
15.29 594.645569
15.30 575.364502
15.31 572.724304
15.32 566.916565
15.33 557.181641
15.34 537.729431
15.35 519.504028
15.36 506.512115
15.37 499.088776
15.38 483.593231
15.39 475.615784
15.40 469.279083
15.41 469.030304
15.42 456.358307
15.43 436.539978
15.44 431.276001
15.45 422.13324
15.46 414.364838
15.47 417.402649
15.48 417.000397
15.49 404.724701
15.50 395.174835
15.51 387.342529
15.52 382.901245
15.53 381.015991
15.54 383.776459
15.55 383.076599
15.56 376.01535
15.57 370.782349
15.58 362.367798
15.59 356.345245
15.60 355.716827
15.61 359.18689
15.62 358.165131
15.63 362.694061
15.64 361.810089
15.65 348.131042
15.66 341.850952
15.67 341.641113
15.68 345.346008
15.69 347.630432
15.70 348.276276
15.71 355.941132
15.72 357.093414
15.73 356.211029
15.74 353.488861
15.75 343.507874
15.76 337.761688
15.77 336.145447
15.78 340.486938
15.79 344.647583
15.80 345.036957
15.81 342.659302
15.82 343.717163
15.83 350.989807
15.84 356.080292
15.85 354.881775
15.86 345.097992
15.87 350.918427
15.88 358.605743
15.89 356.010162
15.90 345.680054
15.91 336.409912
15.92 330.991516
15.93 334.415161
15.94 336.183136
15.95 339.19281
15.96 347.246185
15.97 344.369446
15.98 337.952972
15.99 337.632477
16.00 337.116302
16.01 340.232391
16.02 335.918884
16.03 334.981781
16.04 343.257233
16.05 348.00061
16.06 342.468506
16.07 335.966156
16.08 337.216064
16.09 337.263885
16.10 338.055237
16.11 340.74588
16.12 348.385498
16.13 353.762543
16.14 352.504486
16.15 357.078644
16.16 353.58551
16.17 347.138855
16.18 352.704895
16.19 351.920471
16.20 347.17984
16.21 340.62323
16.22 338.701965
16.23 338.566711
16.24 340.000763
16.25 343.985596
16.26 348.548553
16.27 351.931244
16.28 349.439392
16.29 345.646423
16.30 337.658173
16.31 335.798553
16.32 338.659668
16.33 339.904938
16.34 342.166046
16.35 348.250092
16.36 351.819916
16.37 352.549225
16.38 345.824677
16.39 342.668182
16.40 349.329559
16.41 356.640259
16.42 350.457306
16.43 342.212769
16.44 342.334778
16.45 341.76767
16.46 340.594116
16.47 348.572235
16.48 351.201263
16.49 344.906708
16.50 345.493103
16.51 347.606781
16.52 348.486389
16.53 349.926727
16.54 352.284424
16.55 349.585602
16.56 343.325409
16.57 335.659058
16.58 336.873932
16.59 348.496979
16.60 355.694885
16.61 358.639404
16.62 361.294342
16.63 358.156921
16.64 353.67807
16.65 359.682892
16.66 359.160492
16.67 354.603363
16.68 355.938599
16.69 357.883179
16.70 355.785553
16.71 350.126801
16.72 349.717133
16.73 351.54599
16.74 357.724152
16.75 362.730408
16.76 366.821411
16.77 365.552612
16.78 361.836761
16.79 357.136749
16.80 359.882599
16.81 360.652496
16.82 357.203979
16.83 350.807159
16.84 349.919434
16.85 348.382965
16.86 349.124115
16.87 350.802734
16.88 353.111542
16.89 356.434479
16.90 355.942871
16.91 353.733551
16.92 347.600433
16.93 351.952148
16.94 364.457367
16.95 368.641602
16.96 360.666962
16.97 356.053741
16.98 354.0737
16.99 353.402222
17.00 354.578705
17.01 346.045349
17.02 345.154419
17.03 352.651093
17.04 358.266022
17.05 353.448059
17.06 355.888
17.07 362.718353
17.08 358.377167
17.09 355.58136
17.10 351.856232
17.11 350.855194
17.12 356.642792
17.13 353.90152
17.14 357.410736
17.15 362.017303
17.16 353.493591
17.17 349.056946
17.18 354.929962
17.19 356.738098
17.20 360.644989
17.21 365.448914
17.22 362.14975
17.23 358.429688
17.24 357.981842
17.25 355.927063
17.26 358.890228
17.27 371.356781
17.28 370.921265
17.29 355.09845
17.30 359.170776
17.31 370.955261
17.32 369.295868
17.33 356.881104
17.34 352.539429
17.35 354.233032
17.36 358.584808
17.37 363.884735
17.38 363.120819
17.39 366.757568
17.40 371.730347
17.41 369.034637
17.42 373.978333
17.43 380.352692
17.44 375.827179
17.45 371.956573
17.46 369.053345
17.47 363.635437
17.48 362.057678
17.49 365.280212
17.50 372.634186
17.51 378.076294
17.52 372.398376
17.53 364.325684
17.54 354.67511
17.55 357.134338
17.56 359.958618
17.57 360.520752
17.58 361.693848
17.59 366.643585
17.60 374.443848
17.61 379.201477
17.62 378.947693
17.63 373.293396
17.64 361.865967
17.65 362.408722
17.66 371.974823
17.67 382.013641
17.68 391.755493
17.69 388.220032
17.70 376.416718
17.71 371.153381
17.72 371.408112
17.73 374.387177
17.74 378.08316
17.75 387.808746
17.76 396.57074
17.77 394.557495
17.78 392.31366
17.79 380.720337
17.80 372.97168
17.81 376.766388
17.82 375.738281
17.83 375.885956
17.84 381.358521
17.85 385.427521
17.86 386.288483
17.87 387.950806
17.88 394.152557
17.89 397.331757
17.90 394.061066
17.91 393.581207
17.92 393.199951
17.93 397.404358
17.94 397.104828
17.95 390.829163
17.96 393.815063
17.97 397.208038
17.98 395.442657
17.99 385.677826
18.00 382.035217
18.01 393.42923
18.02 404.107178
18.03 405.471191
18.04 396.012482
18.05 392.943604
18.06 390.522949
18.07 381.048615
18.08 378.716156
18.09 387.115112
18.10 387.72702
18.11 386.694733
18.12 386.494507
18.13 390.91095
18.14 395.230652
18.15 393.291992
18.16 387.178619
18.17 382.884857
18.18 387.109039
18.19 392.395813
18.20 396.093292
18.21 390.424316
18.22 381.605896
18.23 376.302704
18.24 378.954468
18.25 389.697662
18.26 392.582642
18.27 387.060913
18.28 392.656097
18.29 400.975677
18.30 406.864532
18.31 405.812195
18.32 403.680054
18.33 408.159637
18.34 407.871338
18.35 411.09729
18.36 410.755768
18.37 409.948669
18.38 407.83847
18.39 404.406586
18.40 405.456879
18.41 409.33493
18.42 409.583588
18.43 405.615173
18.44 401.339447
18.45 397.737061
18.46 391.146881
18.47 393.315765
18.48 401.225037
18.49 401.269897
18.50 395.804382
18.51 401.488953
18.52 413.249908
18.53 415.282715
18.54 417.355011
18.55 421.089844
18.56 412.98291
18.57 404.500458
18.58 402.017853
18.59 402.974854
18.60 404.943542
18.61 408.520935
18.62 416.450012
18.63 424.623413
18.64 424.479156
18.65 417.044983
18.66 418.674408
18.67 427.429993
18.68 433.762939
18.69 432.503845
18.70 428.987579
18.71 427.978485
18.72 436.678375
18.73 440.779266
18.74 439.631744
18.75 425.719849
18.76 412.704987
18.77 411.549164
18.78 405.444855
18.79 411.282776
18.80 419.027313
18.81 426.518799
18.82 429.079498
18.83 425.499725
18.84 427.691742
18.85 426.314056
18.86 424.488251
18.87 420.758209
18.88 418.668396
18.89 418.031586
18.90 421.783081
18.91 430.705536
18.92 435.027832
18.93 430.040344
18.94 427.086487
18.95 434.588379
18.96 438.318726
18.97 430.029541
18.98 425.446472
18.99 429.718658
19.00 433.731934
19.01 433.451874
19.02 429.181641
19.03 426.892853
19.04 428.252197
19.05 434.70401
19.06 439.66394
19.07 434.471222
19.08 427.556793
19.09 430.360535
19.10 430.614624
19.11 428.082825
19.12 426.240723
19.13 430.719482
19.14 437.197205
19.15 434.941132
19.16 433.627411
19.17 430.381104
19.18 427.529663
19.19 430.127441
19.20 432.267303
19.21 428.113251
19.22 427.845062
19.23 431.104858
19.24 432.045105
19.25 436.83252
19.26 440.336395
19.27 444.324799
19.28 452.852905
19.29 450.13443
19.30 439.550812
19.31 439.669342
19.32 443.928253
19.33 443.96933
19.34 445.82196
19.35 445.444031
19.36 450.282227
19.37 449.2276
19.38 451.071899
19.39 454.931213
19.40 456.799164
19.41 460.207947
19.42 458.469177
19.43 463.391785
19.44 465.417908
19.45 451.47879
19.46 444.518646
19.47 444.901428
19.48 444.288757
19.49 438.905609
19.50 437.168793
19.51 443.568237
19.52 446.675018
19.53 450.398621
19.54 450.36673
19.55 451.188751
19.56 453.848877
19.57 455.676117
19.58 451.996918
19.59 444.758514
19.60 447.113007
19.61 443.867828
19.62 445.513733
19.63 452.621857
19.64 452.299408
19.65 454.379791
19.66 457.541901
19.67 453.602905
19.68 459.612549
19.69 468.470551
19.70 464.808228
19.71 465.019287
19.72 467.409363
19.73 465.772766
19.74 471.158905
19.75 479.968964
19.76 482.869415
19.77 479.180115
19.78 477.717743
19.79 469.128204
19.80 459.424744
19.81 455.105774
19.82 455.876312
19.83 458.203369
19.84 467.601288
19.85 477.565796
19.86 482.337128
19.87 479.844635
19.88 474.631958
19.89 469.66745
19.90 473.233093
19.91 479.213531
19.92 480.973328
19.93 484.259338
19.94 480.725983
19.95 482.539063
19.96 484.088501
19.97 474.646973
19.98 473.546234
19.99 477.466705
20.00 483.329041
20.01 488.114471
20.02 486.836945
20.03 483.485168
20.04 478.68808
20.05 480.608978
20.06 491.316772
20.07 493.233582
20.08 491.887054
20.09 491.627472
20.10 493.055969
20.11 497.495117
20.12 504.648193
20.13 503.594635
20.14 498.104736
20.15 497.844452
20.16 494.016754
20.17 484.646301
20.18 480.579651
20.19 486.315613
20.20 494.182098
20.21 496.121765
20.22 495.794556
20.23 491.873016
20.24 494.486877
20.25 506.088135
20.26 511.608185
20.27 509.725189
20.28 504.214233
20.29 503.091339
20.30 499.394501
20.31 502.069336
20.32 517.011658
20.33 521.842346
20.34 510.894897
20.35 505.509277
20.36 509.761566
20.37 510.504486
20.38 510.748047
20.39 513.530823
20.40 503.388947
20.41 507.064117
20.42 512.553894
20.43 508.244873
20.44 507.640442
20.45 503.797791
20.46 507.265594
20.47 509.605194
20.48 508.524658
20.49 509.270844
20.50 508.992249
20.51 505.609039
20.52 510.569733
20.53 520.428284
20.54 530.083191
20.55 529.677734
20.56 525.986511
20.57 526.249268
20.58 517.80603
20.59 514.658447
20.60 511.583405
20.61 507.599304
20.62 510.193512
20.63 511.682129
20.64 515.035828
20.65 521.684998
20.66 521.823425
20.67 518.700562
20.68 521.507813
20.69 520.378906
20.70 522.158691
20.71 528.909363
20.72 530.732971
20.73 529.459656
20.74 529.543762
20.75 531.990906
20.76 538.423035
20.77 539.908264
20.78 528.87738
20.79 518.244568
20.80 518.160278
20.81 515.308594
20.82 516.459595
20.83 522.571106
20.84 530.046143
20.85 531.902466
20.86 527.411316
20.87 530.533386
20.88 530.810486
20.89 529.007874
20.90 528.973755
20.91 528.819519
20.92 529.714478
20.93 529.985229
20.94 532.503723
20.95 539.101318
20.96 529.213074
20.97 533.17981
20.98 542.369812
20.99 541.08197
21.00 539.245117
21.01 540.77832
21.02 534.154297
21.03 530.85553
21.04 536.2099
21.05 543.825439
21.06 550.143127
21.07 546.046875
21.08 533.17804
21.09 530.449402
21.10 532.485535
21.11 526.765686
21.12 523.257874
21.13 528.769897
21.14 540.952515
21.15 544.880798
21.16 549.520935
21.17 548.002258
21.18 534.772705
21.19 532.30658
21.20 530.082031
21.21 522.994629
21.22 525.048523
21.23 530.973572
21.24 538.74176
21.25 544.454163
21.26 545.384705
21.27 552.695251
21.28 552.462402
21.29 544.832825
21.30 543.373779
21.31 546.113342
21.32 552.830078
21.33 557.175781
21.34 564.206299
21.35 561.819214
21.36 547.770996
21.37 545.236084
21.38 546.891663
21.39 543.405457
21.40 553.229248
21.41 558.526978
21.42 554.151733
21.43 552.977478
21.44 554.74884
21.45 566.358093
21.46 569.243652
21.47 562.711182
21.48 560.704773
21.49 554.95697
21.50 548.02594
21.51 549.882263
21.52 557.117737
21.53 565.000977
21.54 562.38446
21.55 563.01239
21.56 568.392944
21.57 570.894592
21.58 568.729614
21.59 570.696777
21.60 569.909424
21.61 568.241516
21.62 559.070374
21.63 556.773865
21.64 558.375
21.65 559.319763
21.66 557.314087
21.67 562.099426
21.68 563.50824
21.69 566.773132
21.70 570.019531
21.71 567.783875
21.72 566.344421
21.73 569.381165
21.74 565.444336
21.75 563.305054
21.76 569.717407
21.77 569.851135
21.78 564.666321
21.79 561.789124
21.80 570.522339
21.81 579.635559
21.82 573.865234
21.83 564.165771
21.84 564.876099
21.85 570.45697
21.86 573.831726
21.87 572.780457
21.88 562.094421
21.89 560.516846
21.90 566.74353
21.91 566.793884
21.92 569.3526
21.93 566.241394
21.94 559.17041
21.95 559.08844
21.96 570.398743
21.97 576.616028
21.98 575.248718
21.99 578.169006
22.00 577.264954
22.01 580.435669
22.02 584.804443
22.03 586.260742
22.04 585.284729
22.05 588.124878
22.06 589.579346
22.07 579.921021
22.08 572.915283
22.09 581.944275
22.10 582.704346
22.11 578.908752
22.12 577.790283
22.13 581.368408
22.14 581.191711
22.15 578.798584
22.16 581.544617
22.17 590.670776
22.18 587.191406
22.19 579.899658
22.20 585.900757
22.21 581.074402
22.22 569.582703
22.23 570.551453
22.24 582.120178
22.25 595.708008
22.26 597.487915
22.27 596.673584
22.28 600.751404
22.29 595.29303
22.30 585.0896
22.31 579.329163
22.32 575.91272
22.33 575.915344
22.34 578.806213
22.35 575.648438
22.36 577.135864
22.37 586.295898
22.38 590.452942
22.39 589.862427
22.40 585.932251
22.41 589.713318
22.42 589.712097
22.43 589.406799
22.44 591.328491
22.45 581.109375
22.46 569.065247
22.47 576.322021
22.48 587.598511
22.49 588.940491
22.50 589.53949
22.51 590.115356
22.52 594.474426
22.53 595.794495
22.54 586.939148
22.55 585.915222
22.56 592.601013
22.57 594.364258
22.58 586.529053
22.59 576.673401
22.60 575.874878
22.61 589.687378
22.62 599.097534
22.63 604.088501
22.64 603.392822
22.65 606.477539
22.66 608.915466
22.67 606.248108
22.68 611.397034
22.69 614.410339
22.70 610.812744
22.71 608.657837
22.72 596.705078
22.73 589.821289
22.74 596.973145
22.75 599.754333
22.76 594.36969
22.77 597.522095
22.78 598.769287
22.79 603.313293
22.80 608.846863
22.81 607.557983
22.82 604.742676
22.83 602.337952
22.84 600.818115
22.85 602.79303
22.86 606.620117
22.87 606.542358
22.88 611.889893
22.89 616.442444
22.90 608.613892
22.91 611.022522
22.92 618.949097
22.93 620.648193
22.94 616.001587
22.95 608.98938
22.96 612.148254
22.97 611.209473
22.98 612.748169
22.99 616.62146
23.00 617.952576
23.01 617.963257
23.02 616.201599
23.03 615.282227
23.04 610.959229
23.05 605.634033
23.06 602.701233
23.07 604.756714
23.08 610.493469
23.09 615.35199
23.10 620.560181
23.11 618.944458
23.12 620.097412
23.13 620.307068
23.14 616.254333
23.15 616.643372
23.16 620.904053
23.17 619.875549
23.18 618.263
23.19 619.677002
23.20 621.330872
23.21 622.419861
23.22 628.485901
23.23 631.245789
23.24 618.72998
23.25 608.873169
23.26 613.667725
23.27 615.115723
23.28 608.279175
23.29 609.203918
23.30 614.423218
23.31 616.952515
23.32 624.258057
23.33 628.935669
23.34 625.456421
23.35 628.277832
23.36 633.74646
23.37 629.41333
23.38 630.437439
23.39 635.985229
23.40 631.297302
23.41 624.137634
23.42 621.59436
23.43 620.16803
23.44 615.994934
23.45 621.307495
23.46 632.23291
23.47 638.87561
23.48 630.53363
23.49 618.182495
23.50 613.692627
23.51 621.063416
23.52 619.003845
23.53 622.107788
23.54 624.479187
23.55 627.615784
23.56 625.907532
23.57 618.315613
23.58 612.531616
23.59 618.874634
23.60 622.494812
23.61 627.252808
23.62 628.584351
23.63 626.419128
23.64 628.058655
23.65 624.180176
23.66 621.177795
23.67 627.911133
23.68 636.677185
23.69 637.763916
23.70 627.64502
23.71 626.754456
23.72 627.768494
23.73 619.85498
23.74 620.463745
23.75 623.4245
23.76 623.410217
23.77 621.093933
23.78 619.138428
23.79 622.251221
23.80 621.526611
23.81 622.724304
23.82 624.941467
23.83 630.498779
23.84 630.137878
23.85 633.325806
23.86 633.921143
23.87 635.810608
23.88 638.549866
23.89 628.777649
23.90 626.074768
23.91 626.951538
23.92 632.69873
23.93 636.28125
23.94 634.296387
23.95 639.379333
23.96 644.082458
23.97 635.405762
23.98 628.520569
23.99 625.68512
24.00 622.228638
24.01 629.375549
24.02 637.701721
24.03 634.311829
24.04 630.141663
24.05 628.897949
24.06 623.440002
24.07 623.991394
24.08 631.582275
24.09 637.069702
24.10 633.7323
24.11 634.853271
24.12 633.557312
24.13 623.581848
24.14 624.616455
24.15 629.409119
24.16 623.638062
24.17 616.625244
24.18 619.077515
24.19 621.435181
24.20 624.435364
24.21 625.898804
24.22 624.165527
24.23 627.335022
24.24 634.700684
24.25 641.366638
24.26 644.869385
24.27 641.139282
24.28 636.54657
24.29 631.060669
24.30 627.490112
24.31 627.14209
24.32 627.063049
24.33 622.039185
24.34 629.504333
24.35 633.451477
24.36 633.192932
24.37 633.429932
24.38 638.061951
24.39 639.464233
24.40 637.725586
24.41 632.959595
24.42 624.590271
24.43 626.271912
24.44 632.594238
24.45 630.2724
24.46 634.344177
24.47 632.388184
24.48 627.515259
24.49 627.422852
24.50 628.845886
24.51 628.951782
24.52 629.358887
24.53 637.467957
24.54 642.224243
24.55 636.351135
24.56 631.743652
24.57 631.935181
24.58 633.203552
24.59 634.47168
24.60 629.3479
24.61 625.132751
24.62 625.180725
24.63 630.902771
24.64 638.801514
24.65 642.710449
24.66 644.070313
24.67 651.649292
24.68 650.989807
24.69 645.621399
24.70 636.188782
24.71 627.123047
24.72 629.961914
24.73 634.561462
24.74 633.817993
24.75 639.199402
24.76 641.471436
24.77 639.570129
24.78 635.657104
24.79 638.806091
24.80 640.899536
24.81 639.541687
24.82 641.143616
24.83 640.667114
24.84 639.22699
24.85 636.177185
24.86 629.739014
24.87 629.473206
24.88 633.413696
24.89 626.146667
24.90 626.544006
24.91 638.056091
24.92 645.853638
24.93 648.757202
24.94 651.657227
24.95 650.746033
24.96 636.585999
24.97 635.846741
24.98 648.55603
24.99 656.861816
25.00 654.017578
25.01 646.501953
25.02 642.247681
25.03 643.583923
25.04 645.676636
25.05 644.450745
25.06 649.051697
25.07 647.592468
25.08 637.477722
25.09 631.002625
25.10 636.370972
25.11 640.922058
25.12 642.789917
25.13 640.330017
25.14 635.430237
25.15 634.812439
25.16 631.959106
25.17 627.674927
25.18 632.738403
25.19 636.882507
25.20 643.821289
25.21 649.987915
25.22 656.176941
25.23 656.991333
25.24 658.177063
25.25 648.972534
25.26 634.143433
25.27 629.629395
25.28 628.199158
25.29 628.935181
25.30 636.593445
25.31 642.484924
25.32 634.369507
25.33 636.976807
25.34 647.607788
25.35 641.359009
25.36 638.819458
25.37 646.787415
25.38 647.568359
25.39 640.732605
25.40 640.696167
25.41 644.607422
25.42 639.343201
25.43 631.218811
25.44 629.395203
25.45 632.905151
25.46 634.739868
25.47 640.021606
25.48 643.463562
25.49 646.510132
25.50 648.1698
25.51 640.24353
25.52 638.078064
25.53 644.225159
25.54 655.049316
25.55 653.39209
25.56 641.454285
25.57 638.141907
25.58 635.927429
25.59 634.643799
25.60 635.580811
25.61 629.92157
25.62 627.991272
25.63 629.809998
25.64 628.457031
25.65 629.503723
25.66 637.542419
25.67 641.610901
25.68 644.416687
25.69 651.154663
25.70 651.051758
25.71 644.930664
25.72 640.3927
25.73 638.676331
25.74 636.15448
25.75 634.650024
25.76 631.444336
25.77 631.190857
25.78 628.527283
25.79 628.347351
25.80 630.650757
25.81 633.360107
25.82 633.09491
25.83 627.915894
25.84 629.260864
25.85 639.567932
25.86 647.795959
25.87 649.056519
25.88 651.083252
25.89 650.904419
25.90 648.075317
25.91 647.170105
25.92 649.187866
25.93 644.37561
25.94 637.970215
25.95 633.376709
25.96 627.378784
25.97 633.021423
25.98 644.879639
25.99 645.126709
26.00 637.029541
26.01 636.613403
26.02 642.054016
26.03 647.622498
26.04 646.104553
26.05 641.917236
26.06 641.221741
26.07 641.240295
26.08 639.653687
26.09 636.457214
26.10 629.860291
26.11 620.916382
26.12 622.475464
26.13 630.903198
26.14 633.828918
26.15 632.139465
26.16 633.828918
26.17 639.58728
26.18 637.715576
26.19 632.450989
26.20 636.251099
26.21 638.845398
26.22 635.580017
26.23 636.211426
26.24 638.550232
26.25 643.299561
26.26 646.329529
26.27 642.672119
26.28 638.116638
26.29 631.105469
26.30 632.926331
26.31 632.48999
26.32 631.619263
26.33 635.282898
26.34 638.665955
26.35 637.980225
26.36 637.460815
26.37 633.848877
26.38 637.64978
26.39 632.737244
26.40 628.284302
26.41 627.345459
26.42 629.813416
26.43 633.730042
26.44 633.447327
26.45 626.341675
26.46 621.878723
26.47 627.892944
26.48 634.136963
26.49 628.25708
26.50 622.444336
26.51 622.493164
26.52 625.948547
26.53 627.189209
26.54 631.965881
26.55 637.897156
26.56 642.611511
26.57 639.425537
26.58 627.988647
26.59 624.001099
26.60 624.436035
26.61 624.647034
26.62 628.69043
26.63 634.217957
26.64 636.366699
26.65 637.730957
26.66 632.212891
26.67 621.728821
26.68 628.002747
26.69 638.332031
26.70 638.105408
26.71 640.683533
26.72 637.864929
26.73 630.57074
26.74 628.766052
26.75 631.626892
26.76 629.55719
26.77 624.863647
26.78 624.152222
26.79 626.195801
26.80 620.77179
26.81 617.114136
26.82 626.426086
26.83 631.666382
26.84 626.63031
26.85 622.355103
26.86 622.587769
26.87 624.016663
26.88 625.967834
26.89 626.586304
26.90 625.407288
26.91 622.107666
26.92 619.251587
26.93 619.258606
26.94 623.841736
26.95 632.880676
26.96 630.405212
26.97 628.33429
26.98 629.531982
26.99 631.533691
27.00 634.11676
27.01 634.031677
27.02 631.912842
27.03 631.398254
27.04 630.754028
27.05 629.25531
27.06 622.298035
27.07 623.970642
27.08 632.687134
27.09 635.944519
27.10 626.398376
27.11 625.628052
27.12 628.454712
27.13 629.373901
27.14 626.890442
27.15 624.313904
27.16 620.811584
27.17 621.814697
27.18 626.485779
27.19 622.992981
27.20 619.812012
27.21 620.287903
27.22 623.158997
27.23 629.345276
27.24 636.289551
27.25 630.74939
27.26 630.210022
27.27 634.146912
27.28 633.932678
27.29 623.507202
27.30 614.651611
27.31 618.136902
27.32 631.603638
27.33 631.417969
27.34 629.03833
27.35 624.771484
27.36 623.165161
27.37 622.999756
27.38 622.716492
27.39 619.140503
27.40 621.818604
27.41 630.051086
27.42 634.863403
27.43 639.487549
27.44 641.395996
27.45 638.512756
27.46 632.440735
27.47 633.781006
27.48 634.85376
27.49 637.545898
27.50 639.002808
27.51 627.994263
27.52 618.965881
27.53 612.418823
27.54 608.116577
27.55 609.240723
27.56 615.196289
27.57 624.805664
27.58 623.024231
27.59 617.246521
27.60 620.156189
27.61 622.307434
27.62 621.489441
27.63 622.60968
27.64 611.63916
27.65 612.285095
27.66 620.682922
27.67 626.998718
27.68 635.148804
27.69 630.520813
27.70 623.086609
27.71 626.593079
27.72 622.565186
27.73 618.423279
27.74 618.762085
27.75 625.380127
27.76 631.041626
27.77 624.464722
27.78 623.276367
27.79 619.664368
27.80 615.223572
27.81 615.202454
27.82 615.551575
27.83 622.310791
27.84 630.192322
27.85 624.595032
27.86 617.830872
27.87 618.096863
27.88 621.679749
27.89 621.199402
27.90 615.900085
27.91 612.039307
27.92 613.411804
27.93 615.003601
27.94 619.213989
27.95 625.805359
27.96 629.920532
27.97 635.685547
27.98 640.276367
27.99 634.806213
28.00 627.248291
28.01 623.45282
28.02 625.050842
28.03 624.515076
28.04 618.528503
28.05 618.304199
28.06 622.884277
28.07 618.9021
28.08 617.005981
28.09 617.077881
28.10 621.218201
28.11 621.423401
28.12 620.161377
28.13 623.347229
28.14 619.145386
28.15 616.457031
28.16 618.935425
28.17 619.36145
28.18 623.623657
28.19 630.378479
28.20 631.529053
28.21 626.010315
28.22 616.913025
28.23 618.082336
28.24 619.187866
28.25 622.090759
28.26 623.882141
28.27 620.59436
28.28 616.041565
28.29 618.488586
28.30 618.069031
28.31 615.117981
28.32 619.267822
28.33 630.100769
28.34 632.204529
28.35 629.979248
28.36 629.662048
28.37 627.569214
28.38 625.39679
28.39 622.150757
28.40 622.484253
28.41 628.493042
28.42 630.960815
28.43 631.858582
28.44 630.822388
28.45 633.470459
28.46 638.174622
28.47 638.184326
28.48 634.515564
28.49 636.506958
28.50 641.445007
28.51 642.876526
28.52 635.031738
28.53 631.262634
28.54 636.968018
28.55 638.107666
28.56 634.681213
28.57 637.082642
28.58 643.694336
28.59 644.538513
28.60 644.048584
28.61 647.708923
28.62 650.688477
28.63 652.041931
28.64 647.820129
28.65 647.636597
28.66 648.278931
28.67 654.453552
28.68 656.295593
28.69 653.223938
28.70 651.712219
28.71 657.642517
28.72 662.429321
28.73 668.950317
28.74 667.239502
28.75 661.442322
28.76 663.699341
28.77 676.05426
28.78 692.283936
28.79 698.237488
28.80 701.588196
28.81 703.34436
28.82 708.802795
28.83 709.632813
28.84 702.975159
28.85 702.722717
28.86 705.961243
28.87 707.511108
28.88 711.996887
28.89 722.903076
28.90 733.147705
28.91 744.545105
28.92 736.894897
28.93 733.735291
28.94 740.881531
28.95 746.454224
28.96 748.823425
28.97 749.75946
28.98 750.749512
28.99 749.144897
29.00 746.835327
29.01 746.665039
29.02 754.337402
29.03 760.637329
29.04 755.380188
29.05 759.138672
29.06 765.967346
29.07 760.053894
29.08 750.404846
29.09 748.407776
29.10 750.264954
29.11 750.452148
29.12 736.398682
29.13 730.643372
29.14 743.958008
29.15 748.214478
29.16 748.630127
29.17 755.874146
29.18 753.293091
29.19 746.298645
29.20 745.698853
29.21 745.647278
29.22 741.088684
29.23 738.002258
29.24 733.794434
29.25 726.83197
29.26 721.457458
29.27 723.753174
29.28 722.935913
29.29 709.905518
29.30 708.60791
29.31 700.306702
29.32 703.85376
29.33 712.828552
29.34 706.754761
29.35 697.442383
29.36 693.890686
29.37 699.678345
29.38 694.653381
29.39 681.0578
29.40 673.71698
29.41 679.78949
29.42 677.461487
29.43 669.034607
29.44 668.467346
29.45 674.683472
29.46 675.016846
29.47 677.22522
29.48 682.290527
29.49 686.484009
29.50 683.209167
29.51 679.757874
29.52 676.45929
29.53 670.168518
29.54 666.475403
29.55 662.060547
29.56 654.096191
29.57 653.830444
29.58 653.914063
29.59 650.82782
29.60 647.56073
29.61 646.220154
29.62 646.748535
29.63 643.441345
29.64 638.435547
29.65 641.085999
29.66 642.406067
29.67 644.174438
29.68 650.4198
29.69 653.572876
29.70 651.198303
29.71 653.634094
29.72 660.450317
29.73 659.990967
29.74 651.909668
29.75 641.94574
29.76 639.77417
29.77 639.577698
29.78 633.195679
29.79 629.649475
29.80 633.892395
29.81 639.674377
29.82 639.887024
29.83 641.170715
29.84 644.484314
29.85 634.844849
29.86 629.010925
29.87 631.834045
29.88 634.983032
29.89 635.005859
29.90 636.174072
29.91 640.012695
29.92 638.309082
29.93 636.766479
29.94 639.094849
29.95 640.077209
29.96 638.764648
29.97 640.393188
29.98 641.671936
29.99 636.764893
30.00 641.171509
30.01 643.415588
30.02 636.141968
30.03 634.131287
30.04 634.891174
30.05 638.769958
30.06 643.836853
30.07 641.302429
30.08 638.396301
30.09 640.273682
30.10 647.859009
30.11 649.546936
30.12 638.566528
30.13 638.332642
30.14 643.760315
30.15 640.575256
30.16 636.810791
30.17 642.68634
30.18 643.321777
30.19 646.150146
30.20 650.416199
30.21 654.43689
30.22 655.952026
30.23 653.873413
30.24 649.324951
30.25 652.340332
30.26 656.41217
30.27 657.554871
30.28 654.315369
30.29 650.617554
30.30 656.506897
30.31 656.16333
30.32 659.414001
30.33 668.315735
30.34 674.250854
30.35 672.264343
30.36 671.946533
30.37 667.624329
30.38 669.462891
30.39 679.934021
30.40 683.691101
30.41 682.699097
30.42 684.386292
30.43 684.808289
30.44 688.551453
30.45 697.043091
30.46 698.692017
30.47 696.695374
30.48 702.791077
30.49 704.755249
30.50 695.193909
30.51 690.176514
30.52 696.650513
30.53 697.58313
30.54 704.626465
30.55 717.184265
30.56 716.087646
30.57 700.152344
30.58 691.598145
30.59 689.41626
30.60 687.882507
30.61 683.03064
30.62 684.189026
30.63 689.827576
30.64 688.283447
30.65 678.863281
30.66 664.640015
30.67 663.046753
30.68 668.708435
30.69 671.5672
30.70 672.501099
30.71 672.958313
30.72 668.47998
30.73 665.922913
30.74 657.155823
30.75 646.95166
30.76 643.228516
30.77 635.137207
30.78 635.767883
30.79 638.681641
30.80 634.301331
30.81 632.43573
30.82 633.979492
30.83 628.362671
30.84 621.744202
30.85 625.953369
30.86 626.54187
30.87 625.523193
30.88 621.523621
30.89 618.365479
30.90 608.604919
30.91 599.925659
30.92 605.979431
30.93 608.017944
30.94 601.848206
30.95 607.17334
30.96 609.187927
30.97 603.268311
30.98 598.764404
30.99 594.800842
31.00 594.614929
31.01 600.309692
31.02 601.579773
31.03 599.936523
31.04 597.163391
31.05 597.785583
31.06 598.22406
31.07 593.667725
31.08 578.035645
31.09 576.454834
31.10 579.734497
31.11 577.656921
31.12 579.704102
31.13 579.280151
31.14 582.620178
31.15 583.684509
31.16 574.360352
31.17 570.029785
31.18 569.506531
31.19 568.102295
31.20 570.317627
31.21 570.976501
31.22 568.600342
31.23 573.264832
31.24 574.447449
31.25 576.258118
31.26 579.739868
31.27 576.515198
31.28 572.668213
31.29 567.344177
31.30 564.823059
31.31 571.855957
31.32 577.518677
31.33 576.662231
31.34 576.433167
31.35 574.615417
31.36 569.801208
31.37 569.923218
31.38 580.118469
31.39 573.641907
31.40 565.93512
31.41 570.487488
31.42 574.445618
31.43 577.780518
31.44 573.298584
31.45 561.172974
31.46 555.954346
31.47 558.20105
31.48 561.795776
31.49 569.857483
31.50 571.02179
31.51 562.195557
31.52 559.058533
31.53 564.901001
31.54 563.131226
31.55 561.044739
31.56 565.388245
31.57 569.807678
31.58 568.201782
31.59 568.700134
31.60 567.83728
31.61 562.819519
31.62 556.573425
31.63 558.314453
31.64 561.544617
31.65 563.556213
31.66 557.444763
31.67 548.754639
31.68 552.912537
31.69 553.417358
31.70 557.470398
31.71 561.728149
31.72 560.976074
31.73 562.803162
31.74 561.812744
31.75 563.135132
31.76 568.862915
31.77 572.732239
31.78 573.240723
31.79 573.022156
31.80 568.392029
31.81 565.130127
31.82 565.483643
31.83 568.214355
31.84 569.504944
31.85 573.125732
31.86 572.381409
31.87 562.753601
31.88 558.267212
31.89 559.347839
31.90 558.727478
31.91 560.796082
31.92 561.368347
31.93 563.458496
31.94 566.827026
31.95 563.060425
31.96 562.512024
31.97 568.061707
31.98 566.475952
31.99 563.729004
32.00 563.789429
32.01 556.645996
32.02 554.562622
32.03 566.051392
32.04 573.834595
32.05 568.47583
32.06 568.318176
32.07 567.779907
32.08 564.309998
32.09 559.94989
32.10 557.743958
32.11 560.521912
32.12 565.734558
32.13 569.375
32.14 578.167358
32.15 577.084656
32.16 565.539429
32.17 565.233887
32.18 570.446106
32.19 568.168152
32.20 560.934509
32.21 556.923828
32.22 570.397705
32.23 583.21759
32.24 579.864502
32.25 576.739258
32.26 580.364807
32.27 577.782654
32.28 570.405884
32.29 569.804382
32.30 572.87085
32.31 573.098389
32.32 579.672302
32.33 591.511353
32.34 590.951233
32.35 588.372559
32.36 589.391418
32.37 582.811157
32.38 576.174988
32.39 575.318237
32.40 572.82196
32.41 569.20282
32.42 568.214111
32.43 572.07843
32.44 581.637512
32.45 586.067871
32.46 582.669373
32.47 581.154724
32.48 578.453369
32.49 574.554932
32.50 572.579163
32.51 574.089417
32.52 577.651245
32.53 580.916443
32.54 583.416138
32.55 584.624451
32.56 583.547607
32.57 579.628296
32.58 572.685852
32.59 571.91864
32.60 577.261292
32.61 577.355164
32.62 580.69342
32.63 584.983582
32.64 585.020325
32.65 591.666992
32.66 588.04303
32.67 582.85614
32.68 584.483582
32.69 586.079041
32.70 586.712219
32.71 587.100769
32.72 579.552917
32.73 578.068115
32.74 579.617432
32.75 577.879944
32.76 579.536438
32.77 582.575806
32.78 577.36969
32.79 575.038025
32.80 571.674194
32.81 563.389954
32.82 559.574463
32.83 561.609802
32.84 560.37439
32.85 569.909546
32.86 572.230408
32.87 559.397461
32.88 547.90509
32.89 552.84198
32.90 557.589172
32.91 556.234192
32.92 554.944885
32.93 552.602661
32.94 550.302734
32.95 544.25293
32.96 545.845825
32.97 550.803345
32.98 546.732178
32.99 545.461365
33.00 557.059875
33.01 560.733154
33.02 555.43219
33.03 550.471008
33.04 543.85022
33.05 541.866028
33.06 540.349731
33.07 532.849426
33.08 525.704895
33.09 525.828308
33.10 534.471741
33.11 542.550354
33.12 540.703064
33.13 545.528259
33.14 545.838196
33.15 537.609436
33.16 530.322754
33.17 533.582092
33.18 535.869507
33.19 528.345581
33.20 519.536743
33.21 519.714111
33.22 522.605225
33.23 526.822205
33.24 534.674194
33.25 531.384888
33.26 523.505859
33.27 524.195251
33.28 526.656982
33.29 526.626953
33.30 522.447205
33.31 521.088318
33.32 526.307983
33.33 527.840698
33.34 527.388306
33.35 529.738586
33.36 526.942261
33.37 523.878418
33.38 520.912781
33.39 518.822388
33.40 521.2995
33.41 523.10376
33.42 522.649902
33.43 524.621216
33.44 529.394775
33.45 524.396057
33.46 524.07489
33.47 524.112122
33.48 530.193481
33.49 532.862976
33.50 529.397705
33.51 523.10553
33.52 515.838135
33.53 511.400818
33.54 512.783203
33.55 508.833893
33.56 507.546967
33.57 510.482422
33.58 512.888062
33.59 520.680237
33.60 524.937256
33.61 524.598877
33.62 517.869385
33.63 519.337219
33.64 516.186279
33.65 510.409515
33.66 504.652527
33.67 506.093323
33.68 511.372192
33.69 514.597229
33.70 519.082275
33.71 517.722595
33.72 516.202209
33.73 512.900024
33.74 508.273895
33.75 509.913635
33.76 510.320221
33.77 510.400421
33.78 509.421844
33.79 506.775299
33.80 506.991455
33.81 505.490875
33.82 509.642365
33.83 515.896973
33.84 516.297729
33.85 514.318237
33.86 511.289063
33.87 511.468628
33.88 517.687805
33.89 512.022339
33.90 507.112244
33.91 507.741119
33.92 512.017944
33.93 519.349365
33.94 518.311462
33.95 514.816589
33.96 511.344757
33.97 506.794464
33.98 507.233704
33.99 513.093567
34.00 509.548615
34.01 504.923187
34.02 507.667267
34.03 515.538269
34.04 520.134583
34.05 517.762939
34.06 518.132324
34.07 516.372437
34.08 520.449463
34.09 519.721069
34.10 513.529541
34.11 512.911316
34.12 513.974854
34.13 508.993683
34.14 509.070892
34.15 508.494598
34.16 508.718903
34.17 514.649597
34.18 510.672974
34.19 508.646851
34.20 509.634796
34.21 507.358307
34.22 509.122681
34.23 515.250732
34.24 512.106384
34.25 510.030365
34.26 506.139557
34.27 500.674652
34.28 506.393097
34.29 508.581482
34.30 506.292908
34.31 501.735443
34.32 498.222137
34.33 504.675781
34.34 513.624817
34.35 511.343079
34.36 508.627808
34.37 504.409119
34.38 500.990082
34.39 503.122986
34.40 503.856476
34.41 503.157745
34.42 500.773773
34.43 502.905182
34.44 492.74939
34.45 485.059509
34.46 489.972015
34.47 488.618896
34.48 489.309357
34.49 491.290161
34.50 486.987183
34.51 485.757935
34.52 484.716125
34.53 479.162079
34.54 475.821045
34.55 486.393219
34.56 494.392517
34.57 492.255341
34.58 485.256439
34.59 482.09021
34.60 485.161987
34.61 486.990295
34.62 490.638977
34.63 491.023834
34.64 486.221283
34.65 479.904114
34.66 473.727264
34.67 472.573303
34.68 469.108978
34.69 466.637909
34.70 470.302612
34.71 470.930786
34.72 471.265472
34.73 468.930603
34.74 468.131073
34.75 472.068695
34.76 475.513947
34.77 472.910309
34.78 471.036102
34.79 469.770172
34.80 462.701202
34.81 456.312927
34.82 461.102295
34.83 472.861755
34.84 467.581238
34.85 457.194122
34.86 451.919952
34.87 447.988647
34.88 456.047241
34.89 458.002258
34.90 456.189636
34.91 464.945709
34.92 467.158447
34.93 463.822754
34.94 462.789276
34.95 463.678955
34.96 467.102173
34.97 467.808258
34.98 456.893707
34.99 448.785339
35.00 452.560852
35.01 453.140747
35.02 451.979431
35.03 455.230682
35.04 456.89566
35.05 457.090332
35.06 460.787201
35.07 464.94281
35.08 457.466553
35.09 447.47699
35.10 451.23114
35.11 456.586182
35.12 453.531097
35.13 452.028198
35.14 447.096375
35.15 445.233856
35.16 448.961609
35.17 448.193756
35.18 449.453949
35.19 452.628815
35.20 454.065582
35.21 453.044373
35.22 450.618164
35.23 448.14447
35.24 447.06485
35.25 445.736694
35.26 444.496155
35.27 441.660309
35.28 434.928619
35.29 437.35965
35.30 441.439697
35.31 442.973541
35.32 445.096313
35.33 447.276337
35.34 446.739594
35.35 445.556488
35.36 439.326233
35.37 439.847473
35.38 439.048218
35.39 437.200836
35.40 438.044647
35.41 435.160614
35.42 436.301361
35.43 440.438507
35.44 441.013092
35.45 439.864563
35.46 434.229553
35.47 422.915009
35.48 418.397614
35.49 428.32489
35.50 432.466034
35.51 438.451416
35.52 443.642181
35.53 440.687439
35.54 440.94397
35.55 442.436249
35.56 435.786133
35.57 435.06955
35.58 431.839233
35.59 437.079224
35.60 438.664703
35.61 433.183411
35.62 434.620514
35.63 432.493439
35.64 429.23465
35.65 433.140717
35.66 438.245697
35.67 442.751251
35.68 441.060913
35.69 435.965668
35.70 430.752594
35.71 431.061707
35.72 433.44635
35.73 438.14682
35.74 435.248901
35.75 424.698761
35.76 426.25412
35.77 430.571198
35.78 427.675995
35.79 432.566559
35.80 433.221863
35.81 426.077087
35.82 426.462708
35.83 428.642456
35.84 427.6521
35.85 423.102509
35.86 420.409485
35.87 418.482391
35.88 418.792969
35.89 416.897247
35.90 420.415375
35.91 421.479004
35.92 417.998657
35.93 426.910248
35.94 437.33963
35.95 435.112244
35.96 431.639496
35.97 432.227905
35.98 428.789093
35.99 426.6026
36.00 415.555176
36.01 409.806549
36.02 414.095093
36.03 418.252625
36.04 421.502747
36.05 421.296112
36.06 415.040009
36.07 414.77655
36.08 414.409515
36.09 414.7966
36.10 416.941101
36.11 415.406036
36.12 415.652802
36.13 419.611633
36.14 419.726349
36.15 418.877777
36.16 411.115509
36.17 410.800079
36.18 416.675507
36.19 414.47757
36.20 411.553345
36.21 409.235962
36.22 406.328949
36.23 407.747528
36.24 408.944702
36.25 400.131226
36.26 401.498596
36.27 405.601776
36.28 403.888855
36.29 399.78302
36.30 398.681122
36.31 404.514252
36.32 404.04892
36.33 407.80545
36.34 405.18457
36.35 404.081207
36.36 408.655396
36.37 402.808167
36.38 397.084137
36.39 398.800446
36.40 404.447052
36.41 410.964294
36.42 410.174561
36.43 408.825836
36.44 409.886322
36.45 407.375336
36.46 406.285767
36.47 413.719452
36.48 413.974091
36.49 406.391327
36.50 404.136047
36.51 406.379852
36.52 406.795105
36.53 405.65036
36.54 399.267151
36.55 398.509521
36.56 399.168365
36.57 399.827393
36.58 399.816254
36.59 401.059357
36.60 399.888184
36.61 399.819489
36.62 401.61145
36.63 401.253082
36.64 401.404694
36.65 399.915161
36.66 398.556122
36.67 396.848114
36.68 398.455872
36.69 396.607269
36.70 399.781403
36.71 401.200226
36.72 401.379791
36.73 399.134552
36.74 393.205933
36.75 396.183044
36.76 396.676971
36.77 393.010651
36.78 392.605896
36.79 388.452057
36.80 392.075745
36.81 395.134613
36.82 396.070038
36.83 390.727142
36.84 385.202393
36.85 385.979858
36.86 389.855682
36.87 391.168549
36.88 391.55896
36.89 393.303772
36.90 389.352936
36.91 386.16861
36.92 388.209869
36.93 392.329865
36.94 393.897675
36.95 388.156281
36.96 385.27774
36.97 389.793732
36.98 386.9935
36.99 384.220398
37.00 379.140472
37.01 377.385101
37.02 385.636047
37.03 389.372406
37.04 390.941833
37.05 397.457092
37.06 400.008911
37.07 394.023926
37.08 391.028107
37.09 389.871246
37.10 388.698792
37.11 382.977234
37.12 382.700287
37.13 392.577301
37.14 391.223999
37.15 385.806976
37.16 385.868958
37.17 383.757996
37.18 383.650543
37.19 383.21405
37.20 383.850067
37.21 385.621063
37.22 386.20462
37.23 377.381165
37.24 366.095428
37.25 374.254761
37.26 379.948761
37.27 377.838104
37.28 374.145416
37.29 375.960236
37.30 375.782471
37.31 379.97995
37.32 381.550507
37.33 378.38916
37.34 383.592834
37.35 385.68161
37.36 383.90036
37.37 380.116272
37.38 375.080078
37.39 373.618591
37.40 375.967865
37.41 376.491547
37.42 375.700439
37.43 378.935516
37.44 377.951508
37.45 375.931946
37.46 376.774567
37.47 375.038788
37.48 374.354858
37.49 371.126862
37.50 371.449738
37.51 373.304779
37.52 372.769714
37.53 377.257111
37.54 380.006653
37.55 374.991394
37.56 374.878784
37.57 377.089722
37.58 373.0448
37.59 369.540253
37.60 369.07312
37.61 364.168823
37.62 359.93219
37.63 363.101776
37.64 371.500916
37.65 373.913513
37.66 375.695465
37.67 376.257568
37.68 375.373932
37.69 376.475769
37.70 375.79599
37.71 367.495514
37.72 365.144348
37.73 366.101471
37.74 372.973053
37.75 378.433044
37.76 373.80719
37.77 371.80014
37.78 372.727173
37.79 365.243896
37.80 363.650543
37.81 368.310608
37.82 369.274841
37.83 365.17688
37.84 363.680511
37.85 364.357452
37.86 367.488953
37.87 371.545349
37.88 367.518829
37.89 359.966339
37.90 366.034119
37.91 374.135406
37.92 374.3284
37.93 369.112305
37.94 361.122986
37.95 358.07959
37.96 360.725159
37.97 361.493958
37.98 361.97644
37.99 366.246735
38.00 369.062439
38.01 369.647552
38.02 372.596924
38.03 366.616364
38.04 361.855225
38.05 363.896729
38.06 367.607422
38.07 369.945892
38.08 363.349396
38.09 362.544983
38.10 364.493103
38.11 361.505493
38.12 362.534668
38.13 361.938049
38.14 364.923645
38.15 367.4953
38.16 366.954346
38.17 364.560883
38.18 369.916809
38.19 376.724854
38.20 374.093903
38.21 366.109985
38.22 365.150391
38.23 365.761383
38.24 366.22464
38.25 363.118164
38.26 360.97345
38.27 360.371399
38.28 359.193207
38.29 358.639648
38.30 360.517029
38.31 359.826721
38.32 360.013641
38.33 363.65799
38.34 365.834686
38.35 362.430969
38.36 353.080841
38.37 348.844299
38.38 351.662079
38.39 357.328125
38.40 359.70813
38.41 367.271088
38.42 371.559174
38.43 363.691162
38.44 359.861969
38.45 357.46109
38.46 360.415924
38.47 362.124176
38.48 361.80307
38.49 360.961212
38.50 363.58139
38.51 368.588074
38.52 369.615082
38.53 365.471466
38.54 366.846588
38.55 371.167358
38.56 374.605621
38.57 376.282623
38.58 373.848694
38.59 368.817383
38.60 360.852448
38.61 359.049561
38.62 361.974091
38.63 359.612183
38.64 361.235474
38.65 366.382721
38.66 367.320587
38.67 367.034485
38.68 360.116791
38.69 352.927429
38.70 358.993774
38.71 357.623566
38.72 358.258392
38.73 362.555695
38.74 357.974976
38.75 357.274384
38.76 354.425354
38.77 348.330353
38.78 350.771851
38.79 356.633392
38.80 361.405151
38.81 356.040649
38.82 356.91098
38.83 361.174469
38.84 354.029449
38.85 356.690155
38.86 361.025146
38.87 358.842896
38.88 361.291718
38.89 360.115143
38.90 354.786102
38.91 353.264099
38.92 354.866028
38.93 353.110077
38.94 348.609344
38.95 348.652069
38.96 350.498779
38.97 353.94281
38.98 357.0914
38.99 353.262421
39.00 353.267548
39.01 353.11734
39.02 349.040527
39.03 352.598999
39.04 356.950348
39.05 358.484589
39.06 355.844452
39.07 353.126709
39.08 351.311249
39.09 354.223816
39.10 357.456268
39.11 357.516113
39.12 361.271759
39.13 355.148346
39.14 348.930054
39.15 354.00177
39.16 352.984436
39.17 351.410187
39.18 353.163513
39.19 352.917786
39.20 348.410767
39.21 345.539581
39.22 349.443756
39.23 356.856659
39.24 358.296051
39.25 354.288635
39.26 351.800842
39.27 352.209503
39.28 356.149414
39.29 354.495605
39.30 353.647522
39.31 356.12149
39.32 355.387695
39.33 354.008545
39.34 355.739075
39.35 353.344513
39.36 352.42392
39.37 352.942535
39.38 352.476959
39.39 354.452911
39.40 354.620117
39.41 357.31723
39.42 359.98053
39.43 352.947083
39.44 348.908691
39.45 347.552948
39.46 350.06958
39.47 354.361237
39.48 357.562866
39.49 359.985809
39.50 355.755157
39.51 355.420654
39.52 359.785339
39.53 361.91391
39.54 366.248291
39.55 361.367554
39.56 353.113678
39.57 355.323669
39.58 353.495605
39.59 349.335083
39.60 348.633698
39.61 353.387177
39.62 353.635986
39.63 349.822906
39.64 350.318512
39.65 357.409241
39.66 355.745026
39.67 349.775146
39.68 352.040955
39.69 351.222107
39.70 352.098633
39.71 354.023193
39.72 349.475616
39.73 348.944611
39.74 347.661316
39.75 342.737579
39.76 345.096222
39.77 346.197113
39.78 346.693726
39.79 349.587402
39.80 352.90271
39.81 354.65741
39.82 349.411774
39.83 344.737518
39.84 342.908569
39.85 340.176819
39.86 341.314728
39.87 343.98233
39.88 344.507782
39.89 344.261414
39.90 345.149841
39.91 347.581024
39.92 348.142883
39.93 348.286926
39.94 350.403992
39.95 348.743408
39.96 346.641937
39.97 349.591858
39.98 350.259857
39.99 346.468903
40.00 343.598083
40.01 339.95282
40.02 339.088959
40.03 342.62088
40.04 350.019501
40.05 355.746674
40.06 354.365784
40.07 350.084534
40.08 346.17984
40.09 343.964233
40.10 343.103241
40.11 342.568237
40.12 339.299011
40.13 341.851349
40.14 347.976288
40.15 342.564972
40.16 342.594177
40.17 348.561371
40.18 345.754913
40.19 341.018402
40.20 340.208801
40.21 343.200989
40.22 352.358978
40.23 354.173462
40.24 348.457428
40.25 341.616669
40.26 340.222992
40.27 340.104187
40.28 341.414886
40.29 343.498535
40.30 346.634552
40.31 346.65387
40.32 340.535065
40.33 336.443604
40.34 339.178619
40.35 342.661072
40.36 342.275696
40.37 343.509125
40.38 342.970551
40.39 342.031708
40.40 340.909149
40.41 338.412476
40.42 333.398254
40.43 333.608643
40.44 336.640686
40.45 341.364838
40.46 345.570679
40.47 343.648193
40.48 339.498962
40.49 338.16156
40.50 343.998688
40.51 344.164581
40.52 341.554474
40.53 339.72522
40.54 340.065216
40.55 347.531708
40.56 351.736755
40.57 350.292664
40.58 345.975067
40.59 346.702332
40.60 350.864288
40.61 348.91098
40.62 346.481415
40.63 344.115784
40.64 339.776184
40.65 338.847046
40.66 342.213654
40.67 346.571655
40.68 345.835815
40.69 342.083557
40.70 338.302002
40.71 338.949005
40.72 341.248108
40.73 346.450592
40.74 348.514984
40.75 348.32724
40.76 348.937683
40.77 345.000336
40.78 340.493347
40.79 341.373718
40.80 343.773956
40.81 346.133179
40.82 351.231323
40.83 350.369263
40.84 343.752167
40.85 343.295959
40.86 346.939484
40.87 351.357971
40.88 349.297394
40.89 348.075104
40.90 352.242798
40.91 351.675018
40.92 353.689606
40.93 355.390991
40.94 353.015961
40.95 348.445038
40.96 344.187836
40.97 344.167755
40.98 343.559631
40.99 341.495209
41.00 339.714447
41.01 338.672729
41.02 338.568787
41.03 340.045746
41.04 349.344574
41.05 356.674103
41.06 352.351074
41.07 349.387878
41.08 349.659607
41.09 349.150177
41.10 345.942139
