!@!!GADDS PLOTSO FILE: Chi integration type
!@!!Title/SampleName: ML_MAPbX3_chem3
!@!!User: NREL
!@!!Site: NREL SERF C211; SN 2510
!@!!Frame: ML_MAPbX3_chem3_000_002.gfrm
!@!!Wavelengths    1.54184   1.54056   1.54439
!@!!Frame angles: 2Theta: 28.000 Omega: 5.000 Phi: 0.000 Chi: 90.000
!@!!Integration range: 2Theta: 9.700 to 40.700  Gamma: -125.100 to -56.400
!@!!Integration method: bin normalized
!@!N
!@!SS
!@!M
!@!L 0.0 0.0 0.0 0.0
!@!XDegrees
!@!YCounts
9.70 181.329056
9.71 183.469116
9.72 175.383072
9.73 169.971146
9.74 175.071335
9.75 179.179092
9.76 177.724655
9.77 178.67511
9.78 180.12355
9.79 178.93985
9.80 174.196381
9.81 175.313385
9.82 176.746078
9.83 180.768845
9.84 183.605728
9.85 181.428665
9.86 176.322739
9.87 175.531845
9.88 182.718735
9.89 176.638336
9.90 167.606445
9.91 171.103241
9.92 176.910141
9.93 182.210373
9.94 180.514008
9.95 182.480789
9.96 186.490463
9.97 184.336517
9.98 185.038788
9.99 184.615677
10.00 187.108627
10.01 188.642532
10.02 188.122955
10.03 187.529968
10.04 185.340958
10.05 182.456543
10.06 182.819122
10.07 180.890686
10.08 176.702728
10.09 176.954254
10.10 178.066467
10.11 185.600555
10.12 189.953094
10.13 183.691406
10.14 185.331345
10.15 199.253128
10.16 198.807083
10.17 185.75473
10.18 183.738632
10.19 185.15004
10.20 177.192627
10.21 181.62944
10.22 188.691116
10.23 182.358643
10.24 187.322723
10.25 194.92041
10.26 192.292938
10.27 192.403442
10.28 193.908646
10.29 188.295563
10.30 184.69519
10.31 191.981827
10.32 186.21315
10.33 171.543671
10.34 177.261093
10.35 185.731125
10.36 185.635361
10.37 183.443878
10.38 183.860947
10.39 183.645706
10.40 184.355164
10.41 185.599823
10.42 183.96019
10.43 178.193893
10.44 175.310287
10.45 186.406967
10.46 188.4496
10.47 185.569946
10.48 192.29837
10.49 196.712158
10.50 200.958038
10.51 200.601624
10.52 202.204239
10.53 204.015747
10.54 199.285553
10.55 199.161423
10.56 197.96199
10.57 190.858627
10.58 186.634369
10.59 193.379074
10.60 198.533646
10.61 199.156555
10.62 197.104645
10.63 202.165192
10.64 207.873917
10.65 199.960953
10.66 194.785522
10.67 195.151138
10.68 194.785904
10.69 200.167282
10.70 202.058701
10.71 201.216141
10.72 203.278671
10.73 194.228317
10.74 199.266754
10.75 206.709854
10.76 204.91832
10.77 203.561798
10.78 202.360245
10.79 198.400604
10.80 193.682388
10.81 199.701324
10.82 202.935532
10.83 203.664551
10.84 202.884811
10.85 201.595413
10.86 205.858597
10.87 207.795853
10.88 205.629349
10.89 207.176926
10.90 203.047546
10.91 198.122269
10.92 199.108444
10.93 209.756668
10.94 212.81636
10.95 208.46814
10.96 204.95462
10.97 201.103195
10.98 199.852631
10.99 197.246399
11.00 192.225754
11.01 192.392136
11.02 197.101578
11.03 202.473083
11.04 205.653076
11.05 205.936508
11.06 199.349823
11.07 198.950867
11.08 203.883301
11.09 205.169846
11.10 213.633728
11.11 214.807434
11.12 211.948715
11.13 212.045212
11.14 210.238525
11.15 207.339676
11.16 206.526749
11.17 208.793091
11.18 206.596237
11.19 204.598145
11.20 206.600464
11.21 202.96077
11.22 202.166321
11.23 206.515259
11.24 199.741821
11.25 196.780594
11.26 207.663376
11.27 210.564606
11.28 207.63063
11.29 202.544388
11.30 202.228485
11.31 206.120407
11.32 210.28186
11.33 212.377243
11.34 210.848572
11.35 209.195496
11.36 206.724716
11.37 209.510391
11.38 218.168793
11.39 221.086914
11.40 214.214859
11.41 211.05452
11.42 209.804886
11.43 208.612442
11.44 213.512772
11.45 218.152878
11.46 222.653824
11.47 223.563599
11.48 218.378876
11.49 214.800797
11.50 216.00885
11.51 220.332825
11.52 217.596832
11.53 210.949707
11.54 210.148743
11.55 209.341965
11.56 212.017609
11.57 213.513412
11.58 216.332504
11.59 212.284729
11.60 213.431198
11.61 222.50473
11.62 226.757248
11.63 229.633377
11.64 231.5065
11.65 227.034698
11.66 222.564438
11.67 225.70314
11.68 223.566437
11.69 218.211273
11.70 218.790604
11.71 219.658371
11.72 219.497391
11.73 214.729813
11.74 210.359161
11.75 218.536102
11.76 225.029099
11.77 223.52507
11.78 226.226791
11.79 231.393814
11.80 233.156158
11.81 230.913818
11.82 227.952988
11.83 225.054672
11.84 218.12059
11.85 217.116272
11.86 219.075974
11.87 218.304977
11.88 221.411285
11.89 223.083298
11.90 224.621216
11.91 225.723083
11.92 233.138885
11.93 236.509384
11.94 234.179398
11.95 235.437881
11.96 231.03923
11.97 230.110687
11.98 239.064743
11.99 238.547195
12.00 230.881805
12.01 228.615814
12.02 224.860443
12.03 224.951981
12.04 226.906006
12.05 226.810135
12.06 234.940979
12.07 228.693085
12.08 223.361298
12.09 220.675323
12.10 216.808411
12.11 224.57959
12.12 227.875381
12.13 229.119125
12.14 231.634247
12.15 230.034485
12.16 233.502731
12.17 238.45047
12.18 231.054489
12.19 224.326263
12.20 222.355011
12.21 223.53566
12.22 229.450531
12.23 233.996964
12.24 235.492889
12.25 240.520477
12.26 234.603928
12.27 227.112808
12.28 228.918427
12.29 237.795837
12.30 245.728348
12.31 249.470322
12.32 247.950272
12.33 241.162628
12.34 241.628876
12.35 237.687744
12.36 232.3423
12.37 235.643829
12.38 236.624786
12.39 236.64595
12.40 241.688568
12.41 247.167587
12.42 246.391296
12.43 244.902466
12.44 252.515274
12.45 251.51799
12.46 245.737274
12.47 238.10936
12.48 238.854004
12.49 245.097183
12.50 240.583542
12.51 240.967758
12.52 242.741486
12.53 241.166168
12.54 240.226486
12.55 240.577072
12.56 246.180283
12.57 251.29921
12.58 254.862778
12.59 247.3311
12.60 245.075653
12.61 246.119339
12.62 256.664825
12.63 263.28125
12.64 250.829483
12.65 238.687729
12.66 233.547195
12.67 243.995331
12.68 248.460052
12.69 252.191086
12.70 255.420029
12.71 249.03743
12.72 251.70192
12.73 259.259674
12.74 261.545288
12.75 263.214813
12.76 259.31778
12.77 251.358002
12.78 249.464325
12.79 251.131042
12.80 256.497803
12.81 264.030182
12.82 266.637817
12.83 265.309204
12.84 259.088409
12.85 257.106995
12.86 259.298981
12.87 257.931854
12.88 257.028687
12.89 252.315262
12.90 253.001526
12.91 259.674164
12.92 258.973297
12.93 258.451324
12.94 260.697083
12.95 260.167908
12.96 262.716156
12.97 263.439911
12.98 258.945953
12.99 259.411072
13.00 264.312042
13.01 261.71579
13.02 255.196106
13.03 259.77005
13.04 266.547241
13.05 266.33783
13.06 268.364594
13.07 269.482483
13.08 262.717438
13.09 260.484406
13.10 259.078735
13.11 258.614685
13.12 266.258789
13.13 270.35022
13.14 274.846375
13.15 274.115417
13.16 268.766754
13.17 262.730286
13.18 263.758575
13.19 269.006592
13.20 271.065277
13.21 270.972412
13.22 276.043854
13.23 278.909546
13.24 274.241974
13.25 271.996124
13.26 272.659241
13.27 271.198944
13.28 269.592712
13.29 262.787689
13.30 256.964722
13.31 256.498627
13.32 259.076752
13.33 263.737915
13.34 264.285278
13.35 265.912598
13.36 267.989441
13.37 264.739777
13.38 262.474213
13.39 267.236938
13.40 273.026306
13.41 275.01181
13.42 274.419128
13.43 270.196075
13.44 265.882538
13.45 267.084717
13.46 276.651886
13.47 282.473389
13.48 280.785248
13.49 282.99884
13.50 282.609039
13.51 274.353455
13.52 272.381714
13.53 275.249298
13.54 275.677368
13.55 268.399933
13.56 271.798523
13.57 281.440521
13.58 286.331665
13.59 288.16864
13.60 287.930115
13.61 283.179504
13.62 276.914093
13.63 276.232391
13.64 274.932465
13.65 276.819916
13.66 280.107086
13.67 282.149506
13.68 282.06604
13.69 275.670135
13.70 274.841095
13.71 280.768097
13.72 279.545441
13.73 277.03714
13.74 278.155273
13.75 281.506195
13.76 283.793488
13.77 282.975708
13.78 286.786102
13.79 293.638641
13.80 295.08786
13.81 288.684784
13.82 283.26828
13.83 289.155945
13.84 292.88678
13.85 290.500763
13.86 290.114563
13.87 285.844635
13.88 285.672241
13.89 291.53714
13.90 290.293335
13.91 284.004517
13.92 281.441528
13.93 286.440552
13.94 293.843048
13.95 299.275909
13.96 298.238037
13.97 301.06427
13.98 297.833466
13.99 287.30249
14.00 292.068695
14.01 301.671631
14.02 295.774872
14.03 288.428925
14.04 287.997986
14.05 286.833832
14.06 283.95282
14.07 290.943878
14.08 294.408722
14.09 289.709869
14.10 291.245178
14.11 291.76413
14.12 293.748047
14.13 295.039429
14.14 295.6828
14.15 294.784973
14.16 296.940704
14.17 297.560669
14.18 289.026245
14.19 290.627625
14.20 291.245087
14.21 289.114594
14.22 291.5242
14.23 290.69809
14.24 288.674683
14.25 286.045959
14.26 293.514282
14.27 298.02124
14.28 296.979736
14.29 299.228394
14.30 301.594666
14.31 300.304596
14.32 298.192474
14.33 301.148438
14.34 306.354614
14.35 312.039917
14.36 317.459351
14.37 315.548218
14.38 312.049194
14.39 313.582275
14.40 311.499298
14.41 305.173767
14.42 305.125458
14.43 314.606445
14.44 321.264954
14.45 319.32193
14.46 322.223267
14.47 325.903259
14.48 322.710236
14.49 319.007385
14.50 324.220551
14.51 331.986481
14.52 326.953613
14.53 311.577423
14.54 309.946777
14.55 319.801788
14.56 323.841583
14.57 324.689575
14.58 328.86087
14.59 330.527161
14.60 332.230011
14.61 331.315399
14.62 328.056274
14.63 328.365448
14.64 326.17746
14.65 321.260254
14.66 322.920074
14.67 325.501831
14.68 332.572815
14.69 339.97467
14.70 336.661957
14.71 331.317505
14.72 332.214783
14.73 331.470093
14.74 335.04541
14.75 347.099091
14.76 357.489044
14.77 360.067078
14.78 357.833771
14.79 357.407227
14.80 357.69635
14.81 362.016113
14.82 371.233337
14.83 376.997925
14.84 382.714081
14.85 385.790375
14.86 388.36734
14.87 399.373169
14.88 396.767914
14.89 403.768005
14.90 413.056763
14.91 417.023499
14.92 423.242218
14.93 434.622559
14.94 439.261902
14.95 440.101593
14.96 448.853516
14.97 450.075836
14.98 459.148895
14.99 472.50827
15.00 481.620361
15.01 492.966003
15.02 504.025818
15.03 504.891907
15.04 516.73584
15.05 522.942322
15.06 540.809387
15.07 562.271851
15.08 575.280334
15.09 581.455139
15.10 589.211609
15.11 604.593994
15.12 622.74469
15.13 643.217041
15.14 653.730835
15.15 667.495911
15.16 674.491638
15.17 698.998047
15.18 714.762207
15.19 732.99176
15.20 744.293457
15.21 774.192505
15.22 794.950317
15.23 836.671631
15.24 863.590332
15.25 890.765991
15.26 920.274719
15.27 948.206665
15.28 972.740784
15.29 982.522095
15.30 1005.914185
15.31 1031.263062
15.32 1074.950684
15.33 1096.71814
15.34 1134.665527
15.35 1152.189209
15.36 1176.053345
15.37 1190.765259
15.38 1220.15332
15.39 1239.749756
15.40 1268.413696
15.41 1289.740601
15.42 1296.236816
15.43 1298.900146
15.44 1306.424072
15.45 1304.69812
15.46 1307.066162
15.47 1301.478149
15.48 1289.399658
15.49 1274.384888
15.50 1254.487549
15.51 1204.097534
15.52 1197.181641
15.53 1146.210205
15.54 1118.110107
15.55 1083.972046
15.56 1067.378784
15.57 1039.05542
15.58 1002.308777
15.59 972.531128
15.60 932.202698
15.61 893.469055
15.62 859.135559
15.63 833.348083
15.64 789.566956
15.65 776.658936
15.66 755.30304
15.67 730.414856
15.68 691.377075
15.69 674.13324
15.70 646.403137
15.71 626.907715
15.72 610.781433
15.73 598.764282
15.74 579.089966
15.75 562.661621
15.76 553.035522
15.77 546.336975
15.78 536.022522
15.79 509.892212
15.80 500.345734
15.81 495.730469
15.82 485.823151
15.83 478.39505
15.84 473.97998
15.85 456.580688
15.86 453.617798
15.87 454.702026
15.88 446.735321
15.89 435.606842
15.90 428.575409
15.91 415.318512
15.92 402.678558
15.93 406.075439
15.94 403.245605
15.95 402.069092
15.96 407.079895
15.97 406.493713
15.98 407.376343
15.99 401.875793
16.00 395.954102
16.01 404.754242
16.02 403.80127
16.03 391.830597
16.04 386.746826
16.05 377.458832
16.06 364.528046
16.07 363.083405
16.08 366.435913
16.09 365.899841
16.10 370.650177
16.11 377.733246
16.12 377.271973
16.13 366.930786
16.14 365.029541
16.15 367.412567
16.16 366.093384
16.17 365.291595
16.18 369.283905
16.19 369.316223
16.20 367.694794
16.21 363.257935
16.22 352.543579
16.23 350.899567
16.24 348.163239
16.25 348.039673
16.26 348.160004
16.27 347.597168
16.28 348.992645
16.29 345.403381
16.30 337.558197
16.31 340.44577
16.32 343.360352
16.33 346.323486
16.34 348.673126
16.35 347.521362
16.36 345.574402
16.37 344.996552
16.38 347.430908
16.39 347.329559
16.40 348.1427
16.41 338.742157
16.42 330.464386
16.43 336.04776
16.44 334.652527
16.45 332.633942
16.46 334.575073
16.47 330.110504
16.48 329.208801
16.49 332.066376
16.50 334.89624
16.51 336.856293
16.52 340.654724
16.53 343.904022
16.54 342.411407
16.55 341.084503
16.56 342.895294
16.57 345.323181
16.58 349.550537
16.59 346.819214
16.60 343.868286
16.61 337.808105
16.62 330.31073
16.63 332.693848
16.64 341.140625
16.65 348.574402
16.66 345.029297
16.67 331.984344
16.68 328.718689
16.69 328.351196
16.70 328.078125
16.71 328.456329
16.72 335.403442
16.73 339.896545
16.74 334.020142
16.75 333.914856
16.76 335.694885
16.77 332.679382
16.78 331.309387
16.79 329.040558
16.80 330.731598
16.81 332.732605
16.82 336.103119
16.83 335.516693
16.84 334.948212
16.85 342.682953
16.86 348.125244
16.87 342.169617
16.88 335.107208
16.89 339.5159
16.90 344.997925
16.91 346.033966
16.92 348.372284
16.93 347.127045
16.94 346.519348
16.95 349.374573
16.96 353.256439
16.97 345.923981
16.98 336.679443
16.99 337.718353
17.00 335.718048
17.01 338.498413
17.02 342.488617
17.03 341.797943
17.04 339.367676
17.05 338.07605
17.06 337.332306
17.07 338.586975
17.08 345.59668
17.09 346.312592
17.10 345.417847
17.11 349.751099
17.12 347.162384
17.13 343.677917
17.14 337.358185
17.15 332.699524
17.16 333.65213
17.17 338.967865
17.18 339.687073
17.19 343.759064
17.20 354.279236
17.21 350.836212
17.22 340.562805
17.23 334.122467
17.24 333.187836
17.25 339.696075
17.26 344.059906
17.27 344.581207
17.28 342.045868
17.29 343.247955
17.30 351.08429
17.31 355.350159
17.32 354.930328
17.33 351.538116
17.34 346.460907
17.35 346.359344
17.36 347.920685
17.37 351.65683
17.38 356.814087
17.39 354.468475
17.40 350.813354
17.41 355.870728
17.42 354.551361
17.43 352.401215
17.44 356.701447
17.45 358.28656
17.46 357.432739
17.47 355.145081
17.48 346.731781
17.49 339.572388
17.50 350.017212
17.51 359.818329
17.52 356.81662
17.53 357.335327
17.54 355.569946
17.55 354.84787
17.56 354.671509
17.57 351.677094
17.58 347.859161
17.59 348.481964
17.60 346.12912
17.61 345.40155
17.62 354.092255
17.63 358.099487
17.64 350.469696
17.65 351.203094
17.66 358.783905
17.67 360.628662
17.68 358.125671
17.69 360.654327
17.70 359.884613
17.71 351.860352
17.72 349.931946
17.73 350.015533
17.74 349.459198
17.75 340.04248
17.76 335.050476
17.77 336.65744
17.78 342.669556
17.79 354.981262
17.80 369.762329
17.81 374.167297
17.82 373.958832
17.83 366.711487
17.84 360.898712
17.85 362.16745
17.86 363.447052
17.87 366.402527
17.88 372.644012
17.89 368.40799
17.90 357.483795
17.91 357.608398
17.92 361.5896
17.93 362.361389
17.94 359.355194
17.95 366.216187
17.96 374.575775
17.97 373.673157
17.98 370.335663
17.99 366.832062
18.00 369.078125
18.01 365.599884
18.02 366.347168
18.03 369.209839
18.04 361.451569
18.05 363.64212
18.06 370.713287
18.07 376.990906
18.08 373.466217
18.09 368.629913
18.10 367.806641
18.11 366.994263
18.12 369.147888
18.13 376.616302
18.14 379.779877
18.15 377.145874
18.16 378.018097
18.17 380.266052
18.18 378.86676
18.19 378.366272
18.20 377.620056
18.21 379.689331
18.22 382.850677
18.23 381.945984
18.24 381.329803
18.25 382.315491
18.26 381.539246
18.27 381.707642
18.28 389.318665
18.29 387.714508
18.30 383.889984
18.31 381.20285
18.32 377.852783
18.33 383.621124
18.34 385.255798
18.35 379.353577
18.36 382.109741
18.37 389.653015
18.38 394.231323
18.39 393.944153
18.40 394.801056
18.41 387.991638
18.42 382.193695
18.43 387.346466
18.44 390.562988
18.45 387.790955
18.46 387.611816
18.47 381.350739
18.48 373.645935
18.49 384.560364
18.50 392.302124
18.51 393.522675
18.52 396.586914
18.53 391.209229
18.54 385.878265
18.55 383.453705
18.56 385.986572
18.57 392.993866
18.58 400.819519
18.59 392.405518
18.60 381.750275
18.61 378.876617
18.62 389.619141
18.63 400.445557
18.64 400.282928
18.65 394.279816
18.66 393.163422
18.67 392.204224
18.68 389.408417
18.69 393.543091
18.70 402.843384
18.71 400.998322
18.72 402.348602
18.73 405.293518
18.74 398.998383
18.75 395.597412
18.76 394.133392
18.77 385.884918
18.78 392.104095
18.79 407.267517
18.80 408.314575
18.81 408.096375
18.82 411.08197
18.83 406.413025
18.84 397.340698
18.85 394.951111
18.86 402.7276
18.87 407.90863
18.88 400.931335
18.89 399.318787
18.90 404.707336
18.91 410.223511
18.92 409.141296
18.93 399.877899
18.94 398.465424
18.95 405.656982
18.96 412.304443
18.97 409.653412
18.98 401.89151
18.99 401.967316
19.00 405.686127
19.01 411.284424
19.02 414.676239
19.03 416.755615
19.04 422.237793
19.05 419.564117
19.06 410.421967
19.07 409.106689
19.08 407.019104
19.09 399.674896
19.10 401.881195
19.11 403.314423
19.12 406.697815
19.13 410.170807
19.14 416.686859
19.15 418.467163
19.16 415.115082
19.17 413.184174
19.18 413.830536
19.19 421.642303
19.20 423.822174
19.21 419.488892
19.22 416.98053
19.23 414.433563
19.24 412.686646
19.25 417.960358
19.26 425.711823
19.27 425.061707
19.28 428.639862
19.29 429.971924
19.30 426.699677
19.31 423.621277
19.32 415.403015
19.33 410.241821
19.34 412.703308
19.35 421.112396
19.36 427.056458
19.37 423.641724
19.38 423.434845
19.39 427.42337
19.40 430.647095
19.41 434.869415
19.42 432.117279
19.43 427.222778
19.44 423.084839
19.45 424.778595
19.46 421.342987
19.47 422.709747
19.48 432.08313
19.49 429.115082
19.50 423.654083
19.51 434.980835
19.52 439.683044
19.53 443.444977
19.54 452.293274
19.55 445.89389
19.56 433.852478
19.57 425.463501
19.58 432.490906
19.59 437.449524
19.60 438.988403
19.61 440.621552
19.62 439.048248
19.63 437.132111
19.64 433.289246
19.65 432.975311
19.66 437.003632
19.67 435.183533
19.68 430.284607
19.69 432.716309
19.70 439.472565
19.71 441.156464
19.72 443.254822
19.73 449.281982
19.74 445.027802
19.75 442.908752
19.76 443.389343
19.77 440.097565
19.78 437.172455
19.79 439.818054
19.80 437.831238
19.81 442.706146
19.82 450.833344
19.83 451.029938
19.84 450.75238
19.85 451.862183
19.86 448.203705
19.87 445.516388
19.88 450.328186
19.89 454.645935
19.90 461.002502
19.91 458.423645
19.92 455.016205
19.93 456.068573
19.94 458.901276
19.95 453.508972
19.96 450.080811
19.97 452.592621
19.98 458.828003
19.99 457.370392
20.00 450.841888
20.01 449.407379
20.02 451.118225
20.03 452.826965
20.04 452.412415
20.05 450.72171
20.06 449.983521
20.07 453.067383
20.08 454.957489
20.09 461.943146
20.10 463.665588
20.11 459.462555
20.12 460.666565
20.13 467.666351
20.14 465.418823
20.15 462.903839
20.16 458.571167
20.17 449.442596
20.18 448.449982
20.19 454.10788
20.20 459.583069
20.21 466.091492
20.22 463.313934
20.23 460.033264
20.24 472.206024
20.25 480.067078
20.26 479.364655
20.27 476.869965
20.28 472.322144
20.29 468.814514
20.30 474.851379
20.31 479.33371
20.32 469.375732
20.33 466.255615
20.34 464.636749
20.35 470.272736
20.36 480.398285
20.37 473.117462
20.38 467.664337
20.39 475.22348
20.40 472.263733
20.41 464.525269
20.42 467.818848
20.43 474.762543
20.44 479.755798
20.45 476.60968
20.46 472.147797
20.47 469.715546
20.48 473.900787
20.49 475.261475
20.50 474.789001
20.51 477.262573
20.52 484.65451
20.53 485.042877
20.54 486.162872
20.55 486.66333
20.56 483.593201
20.57 486.608673
20.58 479.934052
20.59 471.100647
20.60 470.172821
20.61 469.76416
20.62 474.376068
20.63 482.955322
20.64 485.545135
20.65 484.327667
20.66 480.693726
20.67 474.394501
20.68 471.40271
20.69 475.743866
20.70 485.344818
20.71 488.056976
20.72 486.848541
20.73 488.880676
20.74 495.751129
20.75 500.848541
20.76 507.799866
20.77 507.897156
20.78 501.354187
20.79 498.185516
20.80 498.165863
20.81 498.392792
20.82 492.817017
20.83 493.252411
20.84 499.293243
20.85 507.56662
20.86 515.452759
20.87 509.54303
20.88 502.497284
20.89 496.669525
20.90 494.476654
20.91 498.205902
20.92 498.384796
20.93 495.885193
20.94 499.624146
20.95 504.385315
20.96 499.257141
20.97 491.475433
20.98 496.315674
20.99 502.460693
21.00 497.369141
21.01 504.414154
21.02 501.030975
21.03 495.531006
21.04 504.266693
21.05 514.199158
21.06 516.583618
21.07 515.487854
21.08 511.347076
21.09 505.407288
21.10 502.472321
21.11 506.271942
21.12 510.980255
21.13 514.840149
21.14 521.404053
21.15 515.422607
21.16 515.125244
21.17 519.410828
21.18 519.778564
21.19 522.532776
21.20 513.927246
21.21 508.674438
21.22 509.839172
21.23 505.98642
21.24 507.841064
21.25 515.039124
21.26 520.304199
21.27 513.288086
21.28 508.327972
21.29 511.186371
21.30 516.609558
21.31 514.558167
21.32 514.279541
21.33 512.473389
21.34 512.232239
21.35 514.896667
21.36 515.911438
21.37 516.71167
21.38 523.662842
21.39 530.957031
21.40 532.273376
21.41 528.109436
21.42 524.975891
21.43 522.675049
21.44 525.231995
21.45 528.592651
21.46 523.646362
21.47 520.81543
21.48 521.482849
21.49 521.077271
21.50 524.00769
21.51 531.920471
21.52 537.587708
21.53 547.703125
21.54 544.083496
21.55 537.732239
21.56 536.23468
21.57 537.796631
21.58 540.829773
21.59 541.313599
21.60 532.354309
21.61 532.426636
21.62 542.888245
21.63 547.544983
21.64 541.667419
21.65 543.560547
21.66 545.943848
21.67 545.476013
21.68 545.6427
21.69 542.700806
21.70 547.536926
21.71 554.172729
21.72 554.279297
21.73 552.159668
21.74 545.944458
21.75 542.434082
21.76 546.281494
21.77 547.009644
21.78 551.247437
21.79 559.166992
21.80 566.236084
21.81 567.90094
21.82 567.624695
21.83 562.121765
21.84 557.774292
21.85 560.532288
21.86 559.710144
21.87 558.8125
21.88 562.379456
21.89 568.691162
21.90 569.660767
21.91 563.845215
21.92 563.364014
21.93 562.092651
21.94 563.525452
21.95 565.178589
21.96 564.289795
21.97 561.459778
21.98 563.769897
21.99 566.658569
22.00 564.47113
22.01 561.474487
22.02 558.2771
22.03 561.594055
22.04 563.28363
22.05 571.415344
22.06 576.911987
22.07 569.723816
22.08 558.824158
22.09 547.964172
22.10 535.751282
22.11 536.606018
22.12 546.799561
22.13 552.93988
22.14 559.695679
22.15 564.655273
22.16 566.047119
22.17 567.367126
22.18 564.147949
22.19 562.916138
22.20 564.291931
22.21 565.996704
22.22 569.558289
22.23 568.866638
22.24 567.761902
22.25 568.214111
22.26 561.830444
22.27 560.968262
22.28 562.56958
22.29 567.287354
22.30 569.822693
22.31 563.708862
22.32 563.097961
22.33 568.75177
22.34 571.413513
22.35 565.615051
22.36 556.100708
22.37 559.839966
22.38 561.690125
22.39 559.429565
22.40 556.981323
22.41 550.447815
22.42 547.973816
22.43 544.371338
22.44 543.004211
22.45 545.310913
22.46 552.946655
22.47 560.659241
22.48 564.775757
22.49 560.852539
22.50 564.722473
22.51 573.953247
22.52 569.987183
22.53 562.832153
22.54 563.094971
22.55 561.912659
22.56 561.035095
22.57 562.271118
22.58 562.963745
22.59 566.17804
22.60 570.941895
22.61 566.832825
22.62 566.670898
22.63 571.106384
22.64 565.559265
22.65 560.175354
22.66 565.570251
22.67 564.053955
22.68 557.541992
22.69 559.738525
22.70 562.166626
22.71 565.314514
22.72 565.95575
22.73 558.460876
22.74 554.758972
22.75 552.776855
22.76 550.180176
22.77 558.242981
22.78 566.34613
22.79 575.10437
22.80 574.795044
22.81 570.801514
22.82 575.2677
22.83 584.069336
22.84 591.799561
22.85 594.021973
22.86 585.048889
22.87 581.47876
22.88 576.712341
22.89 571.056091
22.90 567.506531
22.91 572.814087
22.92 579.653809
22.93 583.168457
22.94 583.678406
22.95 577.92627
22.96 575.12915
22.97 576.296387
22.98 580.985596
22.99 591.149963
23.00 593.708862
23.01 588.045532
23.02 585.831421
23.03 585.625366
23.04 589.943115
23.05 592.698914
23.06 586.006226
23.07 585.364746
23.08 587.96582
23.09 592.700806
23.10 596.757874
23.11 592.447083
23.12 585.644836
23.13 582.274902
23.14 576.593933
23.15 579.128723
23.16 579.832764
23.17 580.59314
23.18 589.84259
23.19 593.225952
23.20 589.486816
23.21 587.193115
23.22 585.786804
23.23 587.827698
23.24 590.985046
23.25 593.258362
23.26 590.271362
23.27 588.34613
23.28 587.190308
23.29 580.822144
23.30 578.478394
23.31 582.275818
23.32 580.676453
23.33 580.291992
23.34 586.586975
23.35 586.496399
23.36 584.62439
23.37 582.126648
23.38 579.423096
23.39 581.89856
23.40 591.74231
23.41 595.514038
23.42 590.646912
23.43 588.91272
23.44 586.614929
23.45 580.941406
23.46 578.082336
23.47 574.315186
23.48 574.844604
23.49 578.50354
23.50 583.259277
23.51 589.726257
23.52 592.205505
23.53 595.362793
23.54 597.730591
23.55 588.60437
23.56 576.06427
23.57 573.785034
23.58 576.849426
23.59 577.481812
23.60 580.911377
23.61 583.191406
23.62 578.614197
23.63 574.879028
23.64 581.007629
23.65 592.64502
23.66 599.291016
23.67 596.310608
23.68 593.280212
23.69 592.99408
23.70 586.592346
23.71 587.353333
23.72 595.025513
23.73 598.363647
23.74 600.612427
23.75 596.23822
23.76 594.76239
23.77 598.694336
23.78 592.369446
23.79 586.004517
23.80 586.931519
23.81 594.640869
23.82 602.947021
23.83 597.218445
23.84 589.609375
23.85 587.1604
23.86 585.203918
23.87 583.263184
23.88 590.893188
23.89 601.200195
23.90 604.105896
23.91 601.059937
23.92 601.316711
23.93 596.674988
23.94 594.418274
23.95 588.604675
23.96 584.492554
23.97 587.357605
23.98 600.827087
23.99 606.7099
24.00 603.556885
24.01 601.863403
24.02 600.279053
24.03 601.622192
24.04 605.057312
24.05 603.374329
24.06 605.744141
24.07 604.701538
24.08 597.817627
24.09 591.758911
24.10 589.926147
24.11 596.259521
24.12 600.859375
24.13 602.253113
24.14 605.337585
24.15 604.310486
24.16 596.367981
24.17 599.583496
24.18 602.081299
24.19 594.120117
24.20 593.589905
24.21 592.477905
24.22 592.551208
24.23 592.207214
24.24 596.082703
24.25 604.211548
24.26 608.159424
24.27 612.338623
24.28 616.404663
24.29 615.380493
24.30 613.841858
24.31 612.833679
24.32 613.133118
24.33 608.65686
24.34 596.607971
24.35 598.412231
24.36 604.94458
24.37 602.639587
24.38 599.962463
24.39 599.055847
24.40 605.451782
24.41 612.432739
24.42 609.454346
24.43 601.379456
24.44 595.435608
24.45 595.305115
24.46 594.538086
24.47 598.489929
24.48 601.578674
24.49 604.165955
24.50 607.977417
24.51 610.402283
24.52 602.341736
24.53 596.564026
24.54 601.709595
24.55 599.777344
24.56 594.412903
24.57 595.031372
24.58 593.260376
24.59 592.284058
24.60 598.063538
24.61 604.926208
24.62 605.851746
24.63 603.216431
24.64 595.463074
24.65 600.545288
24.66 603.829712
24.67 603.138062
24.68 603.3927
24.69 604.976624
24.70 600.970825
24.71 603.28894
24.72 602.291138
24.73 596.064819
24.74 597.874146
24.75 601.881897
24.76 600.223206
24.77 602.215515
24.78 607.137573
24.79 605.383911
24.80 596.58197
24.81 588.066589
24.82 595.089783
24.83 601.602722
24.84 599.49231
24.85 599.765808
24.86 604.093567
24.87 597.929199
24.88 592.780518
24.89 594.981995
24.90 600.650635
24.91 604.525391
24.92 602.695435
24.93 599.441223
24.94 599.999817
24.95 601.930237
24.96 605.295105
24.97 606.309814
24.98 598.563721
24.99 600.394043
25.00 605.032654
25.01 605.868469
25.02 603.601318
25.03 610.961853
25.04 616.343201
25.05 613.754517
25.06 608.382385
25.07 603.080383
25.08 597.609192
25.09 605.018372
25.10 610.949036
25.11 614.144714
25.12 618.317871
25.13 616.220398
25.14 610.082886
25.15 604.907898
25.16 599.505859
25.17 597.684753
25.18 605.621338
25.19 617.148132
25.20 615.349487
25.21 610.083923
25.22 609.124695
25.23 608.639343
25.24 607.15979
25.25 607.853149
25.26 609.659851
25.27 610.134583
25.28 607.981445
25.29 611.388794
25.30 618.096985
25.31 619.055847
25.32 610.69696
25.33 603.724304
25.34 607.304077
25.35 614.756409
25.36 616.765503
25.37 607.592346
25.38 602.268982
25.39 605.123474
25.40 605.801147
25.41 609.784058
25.42 608.350037
25.43 604.334778
25.44 604.628662
25.45 607.332336
25.46 603.112366
25.47 602.587524
25.48 609.7677
25.49 609.727112
25.50 603.860291
25.51 598.69104
25.52 597.075867
25.53 600.924377
25.54 602.216797
25.55 603.385681
25.56 598.746033
25.57 594.032654
25.58 592.708496
25.59 598.144043
25.60 609.659058
25.61 611.639832
25.62 604.444275
25.63 605.412537
25.64 604.294373
25.65 601.232788
25.66 606.985413
25.67 610.991577
25.68 612.82666
25.69 604.212524
25.70 597.968079
25.71 597.610901
25.72 601.104492
25.73 605.152161
25.74 603.811157
25.75 599.073608
25.76 596.697937
25.77 601.046814
25.78 602.111694
25.79 603.530762
25.80 600.464172
25.81 596.21814
25.82 606.7005
25.83 613.619446
25.84 605.875854
25.85 602.210938
25.86 602.07196
25.87 603.761353
25.88 607.125183
25.89 602.398621
25.90 601.060608
25.91 603.360352
25.92 598.097839
25.93 596.201965
25.94 600.320496
25.95 597.992065
25.96 593.798645
25.97 602.862915
25.98 605.546326
25.99 604.796387
26.00 598.295837
26.01 595.357239
26.02 595.372742
26.03 599.612793
26.04 604.262756
26.05 606.029785
26.06 603.629578
26.07 599.688721
26.08 599.44574
26.09 601.542725
26.10 604.862671
26.11 607.897461
26.12 616.460388
26.13 620.339966
26.14 617.713013
26.15 617.054626
26.16 617.102356
26.17 607.980225
26.18 604.69751
26.19 614.478333
26.20 617.438538
26.21 618.641296
26.22 619.798401
26.23 618.049866
26.24 607.434631
26.25 599.837585
26.26 606.052002
26.27 610.288757
26.28 607.564148
26.29 605.591431
26.30 601.535339
26.31 594.944946
26.32 595.156311
26.33 593.664734
26.34 588.517029
26.35 591.98999
26.36 596.015442
26.37 593.979553
26.38 587.957275
26.39 589.838562
26.40 597.509827
26.41 598.901123
26.42 602.04248
26.43 605.57251
26.44 599.110535
26.45 591.681396
26.46 597.412903
26.47 604.306335
26.48 609.904541
26.49 607.442139
26.50 607.424072
26.51 606.324524
26.52 597.901062
26.53 599.376709
26.54 608.815247
26.55 611.678345
26.56 605.073364
26.57 594.638428
26.58 592.23584
26.59 593.806641
26.60 592.519043
26.61 594.434082
26.62 598.609741
26.63 596.814758
26.64 601.174622
26.65 608.096191
26.66 608.925537
26.67 609.906616
26.68 610.237427
26.69 611.005981
26.70 612.012634
26.71 608.816833
26.72 597.092651
26.73 596.021851
26.74 600.359802
26.75 600.293884
26.76 602.802734
26.77 602.535767
26.78 596.571533
26.79 590.048584
26.80 591.436829
26.81 592.428528
26.82 590.226685
26.83 591.954956
26.84 596.484436
26.85 605.627991
26.86 608.326721
26.87 598.885925
26.88 591.289551
26.89 594.382141
26.90 593.353455
26.91 594.161377
26.92 599.035522
26.93 595.547363
26.94 597.8302
26.95 599.35675
26.96 594.38031
26.97 601.067627
26.98 610.247314
26.99 604.2771
27.00 600.543274
27.01 603.815247
27.02 598.96521
27.03 597.342102
27.04 602.141479
27.05 602.382568
27.06 597.944275
27.07 602.983826
27.08 605.18103
27.09 600.926514
27.10 599.144287
27.11 598.47406
27.12 592.673645
27.13 596.118225
27.14 600.262878
27.15 602.034729
27.16 601.754639
27.17 594.503662
27.18 592.299744
27.19 588.846985
27.20 585.528625
27.21 585.708069
27.22 592.287598
27.23 593.443542
27.24 595.354431
27.25 594.277954
27.26 592.156433
27.27 588.855286
27.28 596.475952
27.29 597.79657
27.30 600.665894
27.31 597.24176
27.32 584.200562
27.33 579.385559
27.34 580.983826
27.35 577.869141
27.36 580.246643
27.37 592.601379
27.38 593.498291
27.39 595.72168
27.40 599.380127
27.41 598.627136
27.42 598.264343
27.43 599.40741
27.44 605.133423
27.45 607.402527
27.46 598.698669
27.47 593.700989
27.48 595.475464
27.49 591.361084
27.50 594.467651
27.51 598.244263
27.52 600.794312
27.53 599.226196
27.54 589.034973
27.55 581.19873
27.56 584.000549
27.57 589.091736
27.58 595.698303
27.59 596.031433
27.60 596.47052
27.61 598.162415
27.62 603.946045
27.63 604.342773
27.64 604.560242
27.65 605.971191
27.66 601.88678
27.67 603.122009
27.68 595.793884
27.69 587.921143
27.70 581.066101
27.71 585.100464
27.72 591.306885
27.73 590.938965
27.74 588.37677
27.75 589.105652
27.76 591.062073
27.77 594.529114
27.78 594.276794
27.79 591.523804
27.80 588.083069
27.81 585.466248
27.82 587.994141
27.83 590.317749
27.84 591.540588
27.85 592.765503
27.86 589.848328
27.87 588.054504
27.88 588.710083
27.89 586.462463
27.90 593.81012
27.91 597.969666
27.92 601.046448
27.93 597.388855
27.94 586.900085
27.95 575.515381
27.96 572.112427
27.97 581.574585
27.98 587.740295
27.99 586.149475
28.00 587.024414
28.01 590.104614
28.02 586.6745
28.03 584.116638
28.04 584.223694
28.05 585.865417
28.06 585.518005
28.07 592.391602
28.08 596.825989
28.09 586.202881
28.10 575.464478
28.11 576.69104
28.12 579.688171
28.13 582.580139
28.14 583.323608
28.15 581.882507
28.16 584.015625
28.17 586.711487
28.18 588.059753
28.19 586.839539
28.20 581.497498
28.21 583.220886
28.22 588.745789
28.23 590.842712
28.24 590.845398
28.25 583.757568
28.26 581.39209
28.27 582.270264
28.28 580.800354
28.29 586.281616
28.30 586.502747
28.31 581.900879
28.32 582.481506
28.33 587.97345
28.34 590.560486
28.35 589.872437
28.36 591.576904
28.37 593.818054
28.38 592.096008
28.39 585.887878
28.40 581.194092
28.41 580.327209
28.42 582.00885
28.43 575.964783
28.44 575.341064
28.45 580.483765
28.46 584.318848
28.47 590.254761
28.48 597.046753
28.49 594.242554
28.50 588.627441
28.51 586.309387
28.52 582.299133
28.53 582.096619
28.54 584.590637
28.55 588.131958
28.56 587.547607
28.57 584.28009
28.58 585.36084
28.59 584.856812
28.60 578.852905
28.61 579.679504
28.62 579.98877
28.63 576.291016
28.64 582.134949
28.65 586.086914
28.66 582.946777
28.67 579.477905
28.68 575.755981
28.69 576.042786
28.70 580.514038
28.71 582.266846
28.72 586.849121
28.73 591.14325
28.74 590.382507
28.75 585.671814
28.76 585.553772
28.77 585.962341
28.78 585.132935
28.79 584.863281
28.80 587.346924
28.81 586.749573
28.82 578.453247
28.83 575.003662
28.84 582.898987
28.85 589.803589
28.86 585.294312
28.87 579.563904
28.88 577.010559
28.89 576.655518
28.90 578.379883
28.91 581.633972
28.92 581.768005
28.93 586.709595
28.94 586.667236
28.95 576.973328
28.96 574.033508
28.97 578.840393
28.98 586.419678
28.99 592.351563
29.00 590.702209
29.01 590.410156
29.02 587.882813
29.03 581.231445
29.04 582.546021
29.05 584.651855
29.06 583.385315
29.07 582.719421
29.08 578.288879
29.09 580.594116
29.10 585.966125
29.11 588.191772
29.12 589.028076
29.13 583.034119
29.14 583.788757
29.15 584.136169
29.16 582.036438
29.17 578.999634
29.18 582.954346
29.19 582.758423
29.20 575.028259
29.21 571.719421
29.22 574.198853
29.23 576.607422
29.24 581.887756
29.25 584.580261
29.26 588.130859
29.27 585.897339
29.28 580.802124
29.29 578.766235
29.30 581.858093
29.31 579.065979
29.32 579.35376
29.33 584.478455
29.34 581.646606
29.35 583.408813
29.36 591.158691
29.37 587.248657
29.38 581.895813
29.39 581.364746
29.40 578.537903
29.41 578.362793
29.42 581.686829
29.43 577.910828
29.44 577.516357
29.45 582.478455
29.46 583.507385
29.47 585.124451
29.48 581.460327
29.49 583.987488
29.50 587.41333
29.51 583.591492
29.52 575.019165
29.53 565.204468
29.54 569.703918
29.55 572.667236
29.56 575.893616
29.57 574.637085
29.58 574.279236
29.59 577.960327
29.60 580.531128
29.61 583.58313
29.62 582.726868
29.63 575.362732
29.64 571.522278
29.65 578.153748
29.66 579.382019
29.67 579.830078
29.68 587.937317
29.69 595.210266
29.70 590.270691
29.71 582.308472
29.72 572.396606
29.73 566.03595
29.74 565.437561
29.75 567.496033
29.76 568.032349
29.77 569.410583
29.78 572.712708
29.79 573.204956
29.80 574.232727
29.81 573.405762
29.82 574.496765
29.83 580.180725
29.84 582.677429
29.85 578.603027
29.86 575.873413
29.87 572.868164
29.88 571.297668
29.89 571.912598
29.90 578.849609
29.91 586.710266
29.92 582.720093
29.93 582.934448
29.94 582.466187
29.95 580.110596
29.96 588.747131
29.97 585.178772
29.98 577.980713
29.99 583.207703
30.00 588.998474
30.01 581.973938
30.02 576.973328
30.03 571.139893
30.04 569.930847
30.05 574.068726
30.06 572.835632
30.07 572.741516
30.08 573.713013
30.09 573.269592
30.10 576.114807
30.11 580.705505
30.12 585.218872
30.13 589.19928
30.14 583.975952
30.15 574.05957
30.16 575.634155
30.17 579.725525
30.18 577.130676
30.19 576.997986
30.20 578.440857
30.21 575.841492
30.22 576.210388
30.23 577.962341
30.24 579.097107
30.25 583.875854
30.26 584.441895
30.27 582.123779
30.28 575.462036
30.29 572.416077
30.30 575.223755
30.31 574.225098
30.32 577.084534
30.33 579.997803
30.34 579.547119
30.35 577.596863
30.36 574.983948
30.37 583.439209
30.38 587.997864
30.39 580.69458
30.40 580.477417
30.41 586.891418
30.42 590.173767
30.43 593.280518
30.44 592.835999
30.45 590.381775
30.46 587.744934
30.47 587.862244
30.48 586.65863
30.49 583.375183
30.50 590.618286
30.51 595.350891
30.52 594.051453
30.53 593.763672
30.54 591.342896
30.55 591.135986
30.56 593.916931
30.57 591.593994
30.58 590.371826
30.59 592.576538
30.60 590.990784
30.61 594.875977
30.62 597.680481
30.63 594.765503
30.64 596.894958
30.65 592.85675
30.66 589.501099
30.67 595.76416
30.68 598.405762
30.69 594.921204
30.70 590.771301
30.71 585.797546
30.72 587.945923
30.73 596.180481
30.74 597.790527
30.75 596.054871
30.76 602.759827
30.77 612.172302
30.78 609.390869
30.79 596.436035
30.80 593.671936
30.81 606.794922
30.82 609.479736
30.83 609.45697
30.84 613.067078
30.85 612.589355
30.86 616.64093
30.87 619.644897
30.88 623.842041
30.89 619.624878
30.90 614.566101
30.91 623.747803
30.92 641.120483
30.93 647.461304
30.94 646.764526
30.95 655.213318
30.96 661.38092
30.97 668.750061
30.98 671.299194
30.99 670.566772
31.00 673.199646
31.01 681.752563
31.02 700.071838
31.03 718.722656
31.04 734.756958
31.05 740.335999
31.06 744.782104
31.07 746.937622
31.08 753.534912
31.09 754.42749
31.10 768.376709
31.11 780.358643
31.12 781.625977
31.13 788.585632
31.14 795.215759
31.15 798.148315
31.16 804.393555
31.17 804.398071
31.18 798.360596
31.19 804.109497
31.20 816.463623
31.21 816.153076
31.22 808.858643
31.23 797.294678
31.24 792.522644
31.25 790.402039
31.26 777.621704
31.27 772.197571
31.28 769.594116
31.29 767.176331
31.30 761.431396
31.31 756.140625
31.32 755.394226
31.33 747.810303
31.34 736.283875
31.35 707.757141
31.36 699.430115
31.37 693.663208
31.38 683.567139
31.39 679.800415
31.40 674.46106
31.41 664.430542
31.42 661.273682
31.43 659.7005
31.44 644.257141
31.45 636.484802
31.46 618.740173
31.47 607.456848
31.48 600.942627
31.49 598.798157
31.50 594.89917
31.51 591.704102
31.52 589.533936
31.53 587.570496
31.54 584.718872
31.55 580.719299
31.56 585.120361
31.57 585.79834
31.58 580.623535
31.59 573.942627
31.60 569.870361
31.61 567.706482
31.62 569.999695
31.63 570.604065
31.64 567.82782
31.65 563.444397
31.66 557.414307
31.67 557.093201
31.68 555.741211
31.69 555.395447
31.70 559.607544
31.71 562.251282
31.72 558.545959
31.73 554.724121
31.74 558.120178
31.75 559.757813
31.76 555.999573
31.77 547.430542
31.78 551.256775
31.79 557.127014
31.80 559.284058
31.81 564.592102
31.82 561.475952
31.83 554.544861
31.84 550.094177
31.85 551.443542
31.86 550.986511
31.87 546.312561
31.88 546.742126
31.89 540.18396
31.90 533.092041
31.91 529.303284
31.92 530.457031
31.93 538.784119
31.94 541.021179
31.95 539.575989
31.96 542.895569
31.97 542.181946
31.98 542.691895
31.99 544.623718
32.00 539.742188
32.01 534.039734
32.02 533.199768
32.03 537.024048
32.04 536.805908
32.05 536.0448
32.06 534.09198
32.07 532.484924
32.08 538.130127
32.09 542.09137
32.10 537.493835
32.11 528.302612
32.12 525.56012
32.13 526.507202
32.14 532.729431
32.15 536.516846
32.16 534.047241
32.17 529.914551
32.18 528.550964
32.19 529.039978
32.20 529.545044
32.21 529.978638
32.22 527.234924
32.23 528.412048
32.24 535.411926
32.25 535.085388
32.26 533.69751
32.27 531.915222
32.28 527.658508
32.29 532.074036
32.30 537.299316
32.31 530.659302
32.32 524.209656
32.33 523.136292
32.34 522.52655
32.35 524.14209
32.36 522.767151
32.37 519.486755
32.38 519.25592
32.39 518.214539
32.40 520.104492
32.41 520.835754
32.42 523.078796
32.43 523.408691
32.44 520.303223
32.45 519.414612
32.46 516.063049
32.47 517.191772
32.48 525.786316
32.49 528.115356
32.50 518.33783
32.51 507.885376
32.52 509.315582
32.53 511.443726
32.54 520.903198
32.55 527.31311
32.56 525.18689
32.57 523.27832
32.58 520.088867
32.59 515.268677
32.60 512.18689
32.61 506.079346
32.62 507.421783
32.63 505.542786
32.64 501.824127
32.65 509.032898
32.66 515.021667
32.67 514.975098
32.68 507.493134
32.69 498.219757
32.70 494.438202
32.71 494.315796
32.72 501.727295
32.73 513.364258
32.74 515.740845
32.75 515.981018
32.76 515.493347
32.77 510.747009
32.78 510.929688
32.79 508.350616
32.80 507.481567
32.81 506.010681
32.82 498.367615
32.83 496.625
32.84 502.303528
32.85 511.584686
32.86 510.803986
32.87 499.877228
32.88 494.053589
32.89 495.861694
32.90 496.693512
32.91 496.486542
32.92 499.06723
32.93 500.924164
32.94 500.903748
32.95 498.981995
32.96 499.965912
32.97 502.325043
32.98 501.669495
32.99 493.063263
33.00 496.609955
33.01 506.248657
33.02 507.500427
33.03 505.793762
33.04 506.519043
33.05 502.544525
33.06 501.585052
33.07 502.542053
33.08 504.427643
33.09 505.85788
33.10 503.877869
33.11 499.459808
33.12 493.653442
33.13 495.59436
33.14 503.102356
33.15 506.28183
33.16 499.146057
33.17 494.957611
33.18 500.867157
33.19 499.856293
33.20 488.381805
33.21 487.492188
33.22 495.391083
33.23 498.307098
33.24 494.260132
33.25 492.033966
33.26 484.610931
33.27 483.35141
33.28 486.625244
33.29 489.777252
33.30 492.065491
33.31 491.263367
33.32 492.5802
33.33 492.309937
33.34 488.781494
33.35 485.069366
33.36 483.202637
33.37 486.797424
33.38 487.189178
33.39 484.940308
33.40 484.657104
33.41 484.862091
33.42 482.953949
33.43 484.637268
33.44 487.952881
33.45 486.305023
33.46 490.860443
33.47 495.501404
33.48 490.628387
33.49 485.564178
33.50 486.665253
33.51 491.081604
33.52 494.292114
33.53 494.420807
33.54 492.384125
33.55 483.423859
33.56 477.450165
33.57 481.631165
33.58 483.972565
33.59 481.156403
33.60 481.815491
33.61 481.289246
33.62 480.696625
33.63 484.719727
33.64 487.884094
33.65 486.968079
33.66 481.519043
33.67 477.703491
33.68 477.778381
33.69 482.364319
33.70 482.592926
33.71 481.043884
33.72 484.634247
33.73 484.204254
33.74 486.009003
33.75 487.316071
33.76 484.38681
33.77 481.49939
33.78 478.700775
33.79 475.923004
33.80 476.570251
33.81 474.426239
33.82 478.6492
33.83 482.59198
33.84 478.935577
33.85 478.389618
33.86 475.971619
33.87 474.270233
33.88 480.000122
33.89 487.377716
33.90 492.329346
33.91 484.283325
33.92 474.495972
33.93 470.729889
33.94 465.874023
33.95 459.397736
33.96 462.952942
33.97 469.429016
33.98 475.55545
33.99 474.0914
34.00 466.733124
34.01 472.749573
34.02 473.017487
34.03 472.881165
34.04 473.820251
34.05 471.358673
34.06 468.158356
34.07 464.673492
34.08 467.582825
34.09 469.002808
34.10 467.51535
34.11 471.160065
34.12 472.827332
34.13 473.164398
34.14 476.903168
34.15 473.926208
34.16 470.060394
34.17 469.499481
34.18 470.364044
34.19 467.93158
34.20 464.264038
34.21 472.480927
34.22 480.180389
34.23 477.962952
34.24 467.875977
34.25 457.222137
34.26 451.258942
34.27 455.314178
34.28 465.929565
34.29 468.117737
34.30 469.156555
34.31 473.776093
34.32 473.037506
34.33 465.19339
34.34 464.257294
34.35 464.15448
34.36 466.059052
34.37 467.96759
34.38 475.474518
34.39 480.580292
34.40 479.357849
34.41 474.213074
34.42 474.725769
34.43 479.061951
34.44 481.241974
34.45 477.405792
34.46 473.930328
34.47 478.256744
34.48 480.120972
34.49 477.115631
34.50 474.602173
34.51 470.139496
34.52 467.586639
34.53 474.104858
34.54 477.900269
34.55 474.847107
34.56 472.759552
34.57 478.568634
34.58 479.983429
34.59 473.59845
34.60 476.392914
34.61 476.478912
34.62 478.73938
34.63 487.371246
34.64 492.371307
34.65 492.738098
34.66 495.93866
34.67 492.440979
34.68 492.959351
34.69 491.078918
34.70 490.146179
34.71 492.742432
34.72 494.7034
34.73 494.041321
34.74 495.672913
34.75 506.194611
34.76 515.827759
34.77 516.021667
34.78 511.481873
34.79 509.155975
34.80 501.251984
34.81 495.082947
34.82 498.68985
34.83 505.949799
34.84 508.651184
34.85 508.894592
34.86 504.939026
34.87 502.825989
34.88 504.331757
34.89 508.85025
34.90 509.053711
34.91 514.598816
34.92 521.722107
34.93 522.397888
34.94 522.109314
34.95 518.767456
34.96 516.155518
34.97 517.220825
34.98 512.70874
34.99 510.215912
35.00 514.137756
35.01 518.585327
35.02 517.525818
35.03 513.727112
35.04 507.347198
35.05 505.332794
35.06 508.466949
35.07 513.494324
35.08 514.50415
35.09 509.036804
35.10 511.163361
35.11 513.757935
35.12 511.056488
35.13 509.942535
35.14 502.233215
35.15 499.200409
35.16 501.024567
35.17 500.960907
35.18 497.400909
35.19 495.04306
35.20 499.506866
35.21 496.819855
35.22 495.367828
35.23 501.962891
35.24 493.384094
35.25 484.437256
35.26 487.062012
35.27 486.51532
35.28 481.251495
35.29 477.111115
35.30 473.276917
35.31 472.322815
35.32 470.581573
35.33 470.723572
35.34 472.318298
35.35 470.174164
35.36 469.832397
35.37 466.426117
35.38 464.730652
35.39 462.791779
35.40 458.788788
35.41 453.671631
35.42 453.514313
35.43 456.611084
35.44 455.420044
35.45 457.592529
35.46 460.100739
35.47 451.822906
35.48 444.097595
35.49 439.296295
35.50 438.602509
35.51 438.921265
35.52 441.917908
35.53 441.996887
35.54 438.816559
35.55 442.675171
35.56 438.657806
35.57 435.846832
35.58 436.964355
35.59 438.57312
35.60 443.12616
35.61 440.136902
35.62 434.323608
35.63 428.602112
35.64 426.742432
35.65 432.299683
35.66 432.126923
35.67 425.506073
35.68 420.383881
35.69 425.112762
35.70 428.287964
35.71 426.333466
35.72 422.536102
35.73 423.901764
35.74 423.382721
35.75 424.798218
35.76 426.048767
35.77 425.770111
35.78 424.31723
35.79 423.144836
35.80 417.712463
35.81 411.348236
35.82 414.369476
35.83 416.674561
35.84 412.191864
35.85 410.191711
35.86 408.903473
35.87 405.471069
35.88 404.358978
35.89 409.747223
35.90 408.210175
35.91 402.178009
35.92 403.222473
35.93 407.569153
35.94 413.164551
35.95 416.414886
35.96 410.92688
35.97 403.829407
35.98 403.131775
35.99 403.487183
36.00 403.724457
36.01 408.602325
36.02 414.795807
36.03 410.024841
36.04 401.041687
36.05 396.228119
36.06 394.934631
36.07 390.192108
36.08 388.098328
36.09 390.09079
36.10 393.735962
36.11 401.996429
36.12 403.74292
36.13 400.325348
36.14 403.445862
36.15 402.613007
36.16 400.093323
36.17 394.586823
36.18 391.982239
36.19 394.423218
36.20 392.487427
36.21 390.691589
36.22 388.966309
36.23 385.255096
36.24 384.043213
36.25 387.581482
36.26 387.341614
36.27 391.407074
36.28 391.212067
36.29 386.406708
36.30 387.669952
36.31 389.651978
36.32 392.804901
36.33 398.663818
36.34 396.978912
36.35 393.107025
36.36 392.024902
36.37 394.38623
36.38 396.18103
36.39 393.639069
36.40 388.340393
36.41 387.125275
36.42 389.496002
36.43 388.866333
36.44 384.681946
36.45 380.542969
36.46 381.693298
36.47 387.122437
36.48 388.117859
36.49 386.079254
36.50 382.972015
36.51 378.258423
36.52 380.659271
36.53 382.690155
36.54 382.610413
36.55 377.212982
36.56 369.726196
36.57 368.544617
36.58 375.680969
36.59 381.788086
36.60 383.039734
36.61 381.832672
36.62 382.182343
36.63 383.396759
36.64 384.171204
36.65 380.628235
36.66 377.277863
36.67 376.486908
36.68 376.384888
36.69 378.192474
36.70 376.319702
36.71 376.493469
36.72 383.129761
36.73 385.785522
36.74 383.460846
36.75 381.424988
36.76 380.817566
36.77 379.234283
36.78 375.633057
36.79 379.579712
36.80 382.200867
36.81 381.656067
36.82 379.280151
36.83 376.479095
36.84 375.49231
36.85 371.69873
36.86 369.282684
36.87 368.653687
36.88 365.768524
36.89 366.065948
36.90 371.761108
36.91 375.470428
36.92 376.327087
36.93 377.763794
36.94 377.872803
36.95 378.321991
36.96 375.58844
36.97 371.302002
36.98 374.340546
36.99 373.515472
37.00 369.580872
37.01 366.898926
37.02 366.60788
37.03 365.892181
37.04 365.146332
37.05 369.30777
37.06 370.808685
37.07 365.485107
37.08 368.141449
37.09 370.720459
37.10 371.581696
37.11 371.420624
37.12 368.697998
37.13 365.042145
37.14 368.979675
37.15 372.691528
37.16 369.136169
37.17 370.556122
37.18 371.415314
37.19 370.213837
37.20 368.638184
37.21 362.803375
37.22 360.716553
37.23 361.056
37.24 358.550751
37.25 364.346985
37.26 370.300903
37.27 369.376312
37.28 369.501099
37.29 366.397736
37.30 359.874969
37.31 361.890808
37.32 361.931763
37.33 355.770599
37.34 354.999329
37.35 362.25946
37.36 364.27774
37.37 363.565979
37.38 356.61026
37.39 355.603027
37.40 359.26825
37.41 358.547089
37.42 358.920807
37.43 357.579559
37.44 359.401123
37.45 361.673615
37.46 357.138428
37.47 352.474518
37.48 354.503571
37.49 354.735657
37.50 352.290894
37.51 354.12381
37.52 357.875122
37.53 358.332886
37.54 354.552246
37.55 358.197266
37.56 360.719635
37.57 359.315521
37.58 362.308289
37.59 363.926361
37.60 366.549194
37.61 363.083649
37.62 356.375641
37.63 353.430847
37.64 349.736237
37.65 347.095276
37.66 351.000854
37.67 352.674591
37.68 348.422516
37.69 353.373352
37.70 359.40274
37.71 358.918915
37.72 361.152527
37.73 360.379456
37.74 358.924927
37.75 359.845276
37.76 359.927002
37.77 361.052094
37.78 358.907837
37.79 353.917755
37.80 358.095154
37.81 360.163818
37.82 360.908325
37.83 361.805237
37.84 360.684052
37.85 362.605743
37.86 362.460419
37.87 358.781006
37.88 354.070801
37.89 354.764587
37.90 353.539246
37.91 355.075134
37.92 354.906525
37.93 351.871765
37.94 354.487457
37.95 356.380219
37.96 357.737061
37.97 356.453918
37.98 353.220123
37.99 354.24942
38.00 359.201752
38.01 358.977417
38.02 358.000031
38.03 353.596527
38.04 345.876556
38.05 348.841827
38.06 355.575623
38.07 358.443085
38.08 360.454712
38.09 358.484039
38.10 358.679352
38.11 358.506104
38.12 357.257721
38.13 358.239105
38.14 353.822296
38.15 351.731445
38.16 351.941315
38.17 349.674255
38.18 356.419586
38.19 362.086395
38.20 358.511688
38.21 352.816193
38.22 355.131439
38.23 356.543457
38.24 357.146912
38.25 361.044647
38.26 360.142181
38.27 352.464569
38.28 349.996246
38.29 353.301086
38.30 352.804474
38.31 355.499023
38.32 358.990845
38.33 356.386414
38.34 357.637421
38.35 360.399963
38.36 357.143402
38.37 352.979889
38.38 350.902039
38.39 348.607239
38.40 345.765869
38.41 346.053955
38.42 346.628296
38.43 348.918152
38.44 352.406372
38.45 350.216278
38.46 350.518402
38.47 353.341766
38.48 348.767456
38.49 346.36557
38.50 351.427734
38.51 352.991302
38.52 345.002441
38.53 345.163818
38.54 353.306305
38.55 356.340118
38.56 352.732269
38.57 351.220062
38.58 351.584808
38.59 350.627075
38.60 349.645721
38.61 345.794403
38.62 343.644928
38.63 339.323792
38.64 337.912262
38.65 340.771851
38.66 340.300293
38.67 337.058838
38.68 334.935638
38.69 333.990204
38.70 334.086731
38.71 334.583832
38.72 332.600098
38.73 332.135254
38.74 332.046692
38.75 329.19516
38.76 328.710114
38.77 329.106384
38.78 332.934479
38.79 340.140442
38.80 340.411804
38.81 335.476135
38.82 330.638916
38.83 323.312164
38.84 319.779755
38.85 323.689026
38.86 331.641846
38.87 334.615356
38.88 329.983582
38.89 324.980804
38.90 324.625885
38.91 324.440338
38.92 323.742126
38.93 324.925415
38.94 323.023132
38.95 323.970642
38.96 328.75412
38.97 330.402771
38.98 331.484467
38.99 332.2117
39.00 328.790833
39.01 324.085449
39.02 315.33548
39.03 313.310272
39.04 317.694153
39.05 318.622345
39.06 317.099945
39.07 312.967896
39.08 313.250732
39.09 316.813416
39.10 314.09491
39.11 316.8797
39.12 324.040436
39.13 321.774445
39.14 322.631683
39.15 326.250427
39.16 323.987457
39.17 317.672516
39.18 309.81601
39.19 308.887024
39.20 307.110962
39.21 307.755341
39.22 312.296997
39.23 312.294098
39.24 317.241791
39.25 324.484009
39.26 318.697205
39.27 311.999054
39.28 312.678314
39.29 315.743134
39.30 320.508209
39.31 319.422058
39.32 315.705231
39.33 310.886444
39.34 307.351898
39.35 311.679474
39.36 319.362427
39.37 317.227875
39.38 316.785309
39.39 321.631195
39.40 322.283752
39.41 314.61441
39.42 311.820831
39.43 312.436157
39.44 308.963959
39.45 310.239502
39.46 308.797791
39.47 306.776917
39.48 305.366943
39.49 305.296692
39.50 305.582672
39.51 305.595306
39.52 304.223602
39.53 305.435547
39.54 303.924286
39.55 299.257751
39.56 299.295166
39.57 300.294434
39.58 300.605713
39.59 299.954651
39.60 298.697388
39.61 301.18042
39.62 305.858368
39.63 308.230499
39.64 307.640808
39.65 302.712219
39.66 302.02887
39.67 300.986603
39.68 299.889221
39.69 298.310333
39.70 294.884827
39.71 295.625488
39.72 297.059906
39.73 300.339508
39.74 302.310547
39.75 300.71225
39.76 302.02301
39.77 304.889709
39.78 306.794037
39.79 304.03717
39.80 295.299988
39.81 293.485077
39.82 303.012329
39.83 309.768646
39.84 311.685425
39.85 307.712952
39.86 301.032867
39.87 300.738007
39.88 299.791595
39.89 298.629822
39.90 299.582397
39.91 300.719391
39.92 299.654968
39.93 300.163055
39.94 302.303223
39.95 302.113831
39.96 300.356628
39.97 298.256714
39.98 297.745728
39.99 298.302765
40.00 295.311615
40.01 291.519562
40.02 294.970001
40.03 299.671417
40.04 301.303711
40.05 297.301819
40.06 290.942078
40.07 288.455383
40.08 296.436676
40.09 302.686035
40.10 302.774506
40.11 302.776855
40.12 299.161896
40.13 292.240631
40.14 291.515259
40.15 289.918823
40.16 286.790558
40.17 290.281891
40.18 293.563599
40.19 294.140167
40.20 296.261322
40.21 297.920868
40.22 297.462067
40.23 296.136505
40.24 291.794037
40.25 288.869476
40.26 291.705536
40.27 296.337799
40.28 301.514252
40.29 298.134186
40.30 289.560669
40.31 290.887421
40.32 292.284332
40.33 289.196259
40.34 290.374573
40.35 291.900818
40.36 289.211975
40.37 288.361389
40.38 288.847382
40.39 287.873596
40.40 288.548401
40.41 290.520233
40.42 290.591522
40.43 289.098633
40.44 290.513458
40.45 292.028107
40.46 291.484955
40.47 293.047485
40.48 297.18573
40.49 294.830505
40.50 289.810455
40.51 288.490173
40.52 286.166931
40.53 286.386719
40.54 290.655823
40.55 294.453094
40.56 294.581116
40.57 291.770172
40.58 292.315765
40.59 295.245087
40.60 292.899994
40.61 287.255615
40.62 286.255005
40.63 286.168335
40.64 284.240967
40.65 285.555206
40.66 289.691284
40.67 287.011108
40.68 283.710541
40.69 286.353149
40.70 290.712402
