!@!!GADDS PLOTSO FILE: Chi integration type
!@!!Title/SampleName: ML_MAPbX3
!@!!User: NREL
!@!!Site: NREL SERF C211; SN 2510
!@!!Frame: 081022_MLProject_000_011.gfrm
!@!!Wavelengths    1.54184   1.54056   1.54439
!@!!Frame angles: 2Theta: 28.000 Omega: 5.000 Phi: 0.000 Chi: 90.000
!@!!Integration range: 2Theta: 10.000 to 41.100  Gamma: -120.400 to -60.400
!@!!Integration method: bin normalized
!@!N
!@!SS
!@!M
!@!L 0.0 0.0 0.0 0.0
!@!XDegrees
!@!YCounts
10.00 197.377182
10.01 192.897034
10.02 197.256241
10.03 198.703369
10.04 203.75116
10.05 207.904083
10.06 199.552109
10.07 194.707352
10.08 189.170746
10.09 186.819595
10.10 199.202789
10.11 208.974945
10.12 209.227432
10.13 197.775146
10.14 198.426926
10.15 206.672775
10.16 204.788147
10.17 206.894073
10.18 214.016907
10.19 221.909271
10.20 224.084869
10.21 215.357391
10.22 205.806137
10.23 209.588882
10.24 212.507645
10.25 206.475754
10.26 207.875931
10.27 222.416275
10.28 215.795593
10.29 205.439362
10.30 207.188156
10.31 211.266953
10.32 208.717682
10.33 200.764648
10.34 198.250641
10.35 202.303131
10.36 197.443695
10.37 190.637497
10.38 195.754181
10.39 197.550812
10.40 204.492218
10.41 215.050369
10.42 214.238403
10.43 206.998444
10.44 212.047256
10.45 217.266434
10.46 212.622208
10.47 206.37413
10.48 208.712494
10.49 217.597137
10.50 215.621521
10.51 213.261444
10.52 213.575668
10.53 213.411301
10.54 218.360428
10.55 222.456299
10.56 218.754517
10.57 215.533096
10.58 210.614868
10.59 209.088165
10.60 206.463181
10.61 198.243225
10.62 199.788498
10.63 212.460907
10.64 225.751785
10.65 218.132141
10.66 214.383331
10.67 219.25386
10.68 215.460815
10.69 214.888199
10.70 214.37262
10.71 212.066147
10.72 210.890381
10.73 209.971207
10.74 214.101608
10.75 220.280289
10.76 222.650864
10.77 225.720383
10.78 220.700562
10.79 217.424179
10.80 221.826187
10.81 223.092133
10.82 227.234467
10.83 226.168076
10.84 227.610992
10.85 227.79866
10.86 224.94136
10.87 225.397858
10.88 228.614822
10.89 222.503754
10.90 213.371948
10.91 220.490082
10.92 223.89473
10.93 222.910583
10.94 225.613571
10.95 226.02092
10.96 230.979401
10.97 234.403122
10.98 231.314301
10.99 219.260696
11.00 212.598465
11.01 220.73291
11.02 230.702835
11.03 230.00354
11.04 226.557648
11.05 223.748062
11.06 224.38829
11.07 225.50029
11.08 222.676743
11.09 226.191681
11.10 231.832474
11.11 227.946472
11.12 223.88324
11.13 228.576019
11.14 224.759445
11.15 221.181793
11.16 220.144638
11.17 224.267883
11.18 223.430527
11.19 219.890182
11.20 223.545959
11.21 225.47049
11.22 220.275467
11.23 221.698959
11.24 224.83815
11.25 218.027161
11.26 219.506973
11.27 224.879272
11.28 225.918839
11.29 233.303574
11.30 242.736649
11.31 241.081055
11.32 224.079239
11.33 217.678299
11.34 221.379974
11.35 230.108078
11.36 241.674667
11.37 233.74057
11.38 221.039169
11.39 225.467148
11.40 230.310806
11.41 224.603867
11.42 228.306152
11.43 230.080795
11.44 236.186172
11.45 236.113083
11.46 238.334457
11.47 246.445801
11.48 241.143509
11.49 239.500916
11.50 247.610626
11.51 245.746368
11.52 239.452469
11.53 238.302231
11.54 237.696167
11.55 235.677917
11.56 226.847641
11.57 219.527542
11.58 227.394379
11.59 235.205429
11.60 242.375259
11.61 252.790558
11.62 248.232468
11.63 237.88446
11.64 232.856445
11.65 228.130005
11.66 227.198654
11.67 231.490936
11.68 240.092712
11.69 251.75882
11.70 253.901398
11.71 248.969894
11.72 248.117874
11.73 242.41301
11.74 240.813904
11.75 242.174957
11.76 241.883621
11.77 239.017273
11.78 242.365982
11.79 244.868515
11.80 241.976379
11.81 245.295975
11.82 243.444229
11.83 246.315994
11.84 244.785904
11.85 242.206436
11.86 239.088852
11.87 239.006241
11.88 243.897476
11.89 244.920776
11.90 238.790527
11.91 238.43808
11.92 245.339188
11.93 246.258408
11.94 245.329742
11.95 249.931335
11.96 249.452393
11.97 253.324371
11.98 254.041412
11.99 240.871231
12.00 234.468857
12.01 235.974564
12.02 230.932571
12.03 232.319351
12.04 246.627548
12.05 246.493607
12.06 236.145279
12.07 236.713867
12.08 237.180435
12.09 239.796341
12.10 248.238281
12.11 255.55011
12.12 259.202545
12.13 252.498566
12.14 249.748398
12.15 250.826279
12.16 247.070953
12.17 248.590164
12.18 248.843948
12.19 239.962814
12.20 239.3423
12.21 243.438522
12.22 243.893112
12.23 249.247803
12.24 258.270386
12.25 262.184326
12.26 254.058624
12.27 242.247833
12.28 238.358658
12.29 243.671677
12.30 244.528275
12.31 243.364136
12.32 243.516861
12.33 245.907822
12.34 249.724548
12.35 249.430328
12.36 246.647263
12.37 248.366501
12.38 257.131226
12.39 265.795044
12.40 260.984985
12.41 252.481277
12.42 251.536545
12.43 252.483871
12.44 250.643799
12.45 254.665482
12.46 255.021011
12.47 249.160339
12.48 249.932007
12.49 256.558441
12.50 255.534637
12.51 256.953094
12.52 260.735321
12.53 251.373093
12.54 250.155411
12.55 255.819641
12.56 255.333832
12.57 265.730621
12.58 281.576202
12.59 278.661224
12.60 270.997864
12.61 268.460663
12.62 264.773682
12.63 261.206329
12.64 267.482178
12.65 265.213379
12.66 254.845596
12.67 247.898087
12.68 244.950684
12.69 255.607315
12.70 260.931458
12.71 262.050629
12.72 263.715271
12.73 252.45314
12.74 254.93692
12.75 266.160767
12.76 260.566681
12.77 250.33667
12.78 251.114227
12.79 255.559341
12.80 257.318298
12.81 261.339081
12.82 268.430084
12.83 272.196533
12.84 272.688446
12.85 269.140686
12.86 264.305511
12.87 260.316711
12.88 264.523987
12.89 270.328735
12.90 269.943817
12.91 273.576843
12.92 272.090607
12.93 264.901642
12.94 264.952698
12.95 268.580017
12.96 275.7229
12.97 279.108276
12.98 273.87561
12.99 272.023743
13.00 269.277863
13.01 269.914307
13.02 272.941925
13.03 269.525696
13.04 269.861847
13.05 273.839325
13.06 268.220337
13.07 253.375473
13.08 251.70665
13.09 257.776917
13.10 265.728912
13.11 273.334869
13.12 264.079559
13.13 254.189301
13.14 254.921432
13.15 261.176483
13.16 265.806671
13.17 264.624878
13.18 264.053192
13.19 265.465485
13.20 267.079468
13.21 269.632507
13.22 264.361633
13.23 261.621918
13.24 265.17157
13.25 268.827881
13.26 277.122559
13.27 285.840729
13.28 285.967438
13.29 274.840027
13.30 276.920349
13.31 283.04007
13.32 278.770813
13.33 280.416443
13.34 289.308472
13.35 289.251495
13.36 279.220337
13.37 276.658295
13.38 275.761932
13.39 276.225189
13.40 283.478088
13.41 288.59021
13.42 287.601685
13.43 286.946472
13.44 283.767212
13.45 282.147858
13.46 278.992645
13.47 279.48114
13.48 286.559906
13.49 288.4375
13.50 291.73941
13.51 282.071167
13.52 269.526794
13.53 267.996826
13.54 276.172913
13.55 285.610352
13.56 292.973907
13.57 294.397858
13.58 284.519348
13.59 281.276794
13.60 284.445007
13.61 288.857727
13.62 289.848541
13.63 285.126251
13.64 282.237976
13.65 285.686462
13.66 287.819916
13.67 285.475189
13.68 283.193542
13.69 281.164764
13.70 281.784088
13.71 285.754791
13.72 287.251862
13.73 290.357178
13.74 289.387939
13.75 282.94693
13.76 278.592041
13.77 276.585022
13.78 284.805054
13.79 294.237183
13.80 296.465546
13.81 289.146088
13.82 280.524658
13.83 281.222168
13.84 297.124176
13.85 300.74646
13.86 291.719299
13.87 292.217468
13.88 290.561523
13.89 289.996582
13.90 295.305786
13.91 291.339844
13.92 289.97049
13.93 296.027039
13.94 289.211456
13.95 279.289307
13.96 283.321899
13.97 296.479889
13.98 300.036987
13.99 298.991119
14.00 302.447601
14.01 301.472565
14.02 293.003693
14.03 289.390625
14.04 302.38269
14.05 308.791382
14.06 298.643188
14.07 291.001801
14.08 297.399048
14.09 293.727386
14.10 288.83194
14.11 298.313873
14.12 307.169098
14.13 309.542114
14.14 302.546661
14.15 289.590424
14.16 289.844055
14.17 293.754791
14.18 294.782867
14.19 295.248871
14.20 293.72226
14.21 300.88031
14.22 305.134674
14.23 298.383179
14.24 297.762207
14.25 297.630798
14.26 296.265228
14.27 302.305359
14.28 313.294983
14.29 311.630707
14.30 305.317993
14.31 308.066254
14.32 314.130219
14.33 314.564697
14.34 310.079132
14.35 304.967926
14.36 313.653076
14.37 319.121643
14.38 318.697876
14.39 329.394562
14.40 333.244049
14.41 328.377411
14.42 323.819794
14.43 327.641571
14.44 328.389648
14.45 324.278748
14.46 332.52829
14.47 344.345428
14.48 340.656921
14.49 336.597351
14.50 342.074005
14.51 349.493134
14.52 360.570709
14.53 358.996063
14.54 358.520569
14.55 366.315186
14.56 365.199158
14.57 369.793549
14.58 373.282135
14.59 372.414764
14.60 374.292297
14.61 384.755402
14.62 388.944275
14.63 390.198425
14.64 408.750305
14.65 420.179474
14.66 420.957001
14.67 418.546112
14.68 428.539215
14.69 431.525116
14.70 436.423706
14.71 447.651703
14.72 461.97879
14.73 467.108429
14.74 479.837463
14.75 495.494354
14.76 496.528412
14.77 497.437073
14.78 504.129852
14.79 514.822998
14.80 518.442749
14.81 532.445251
14.82 568.668335
14.83 596.482117
14.84 596.489563
14.85 604.032959
14.86 609.583557
14.87 624.521606
14.88 629.876709
14.89 656.255371
14.90 692.988098
14.91 709.933411
14.92 716.062927
14.93 726.608276
14.94 739.326782
14.95 757.624512
14.96 779.830444
14.97 802.203308
14.98 835.038818
14.99 854.995728
15.00 869.354797
15.01 880.404663
15.02 914.795044
15.03 930.103271
15.04 956.213562
15.05 977.990234
15.06 1003.444458
15.07 1036.994629
15.08 1055.797485
15.09 1060.434814
15.10 1079.283691
15.11 1101.047974
15.12 1120.610474
15.13 1129.071533
15.14 1125.773071
15.15 1124.548096
15.16 1118.526001
15.17 1112.102905
15.18 1108.391602
15.19 1088.607422
15.20 1082.210327
15.21 1069.401855
15.22 1041.2052
15.23 1022.861145
15.24 1001.484924
15.25 957.730103
15.26 930.161011
15.27 898.788391
15.28 857.576111
15.29 823.562012
15.30 781.343628
15.31 753.920166
15.32 722.669189
15.33 693.494934
15.34 655.101868
15.35 639.775146
15.36 604.97113
15.37 587.921021
15.38 567.442749
15.39 540.17981
15.40 526.545898
15.41 510.536743
15.42 488.731354
15.43 477.530884
15.44 463.488495
15.45 446.254944
15.46 433.576141
15.47 427.764954
15.48 428.107666
15.49 420.187744
15.50 404.536072
15.51 389.896484
15.52 383.248322
15.53 376.009979
15.54 374.618561
15.55 372.387878
15.56 371.636169
15.57 378.204498
15.58 371.300598
15.59 359.669067
15.60 356.60791
15.61 357.184814
15.62 357.728607
15.63 366.421143
15.64 371.960083
15.65 371.309235
15.66 372.806244
15.67 367.354431
15.68 353.758545
15.69 346.764313
15.70 349.617432
15.71 352.578766
15.72 357.207458
15.73 354.015778
15.74 352.59317
15.75 356.53717
15.76 351.075012
15.77 346.643616
15.78 342.394989
15.79 337.011353
15.80 344.370667
15.81 358.809448
15.82 358.074463
15.83 348.349915
15.84 344.350433
15.85 346.138306
15.86 353.036133
15.87 348.670258
15.88 344.738922
15.89 344.215485
15.90 344.289459
15.91 343.345337
15.92 345.100616
15.93 347.861816
15.94 346.4039
15.95 351.346375
15.96 351.09256
15.97 345.992889
15.98 341.009735
15.99 340.367188
16.00 344.805634
16.01 346.069366
16.02 340.628265
16.03 339.577087
16.04 344.963226
16.05 348.399475
16.06 343.450745
16.07 338.053223
16.08 338.070618
16.09 342.776306
16.10 345.485535
16.11 340.22644
16.12 334.506378
16.13 332.253021
16.14 340.814606
16.15 352.957275
16.16 349.814087
16.17 346.278229
16.18 350.764404
16.19 349.981628
16.20 340.168854
16.21 332.29895
16.22 327.08136
16.23 333.351349
16.24 340.594543
16.25 340.373627
16.26 339.044342
16.27 331.626251
16.28 334.257385
16.29 341.044769
16.30 345.484589
16.31 346.031403
16.32 347.924316
16.33 355.072784
16.34 355.299683
16.35 352.69223
16.36 356.681671
16.37 354.907013
16.38 352.780975
16.39 343.790405
16.40 344.772736
16.41 353.400085
16.42 350.163483
16.43 351.144348
16.44 350.510498
16.45 346.653168
16.46 342.372498
16.47 338.124878
16.48 336.721893
16.49 338.782227
16.50 340.920044
16.51 335.037872
16.52 331.512299
16.53 339.058258
16.54 351.568359
16.55 358.645905
16.56 356.5784
16.57 347.589142
16.58 342.800232
16.59 345.122986
16.60 353.197601
16.61 352.248535
16.62 350.786652
16.63 353.602936
16.64 357.692505
16.65 363.509674
16.66 352.403839
16.67 343.610687
16.68 353.934174
16.69 361.944641
16.70 366.510223
16.71 366.160706
16.72 360.921631
16.73 354.248169
16.74 354.225433
16.75 352.506683
16.76 355.051025
16.77 365.311798
16.78 360.081543
16.79 351.252502
16.80 355.63974
16.81 356.182526
16.82 355.954803
16.83 357.329407
16.84 355.426208
16.85 357.638885
16.86 369.549408
16.87 373.2995
16.88 371.445618
16.89 366.029144
16.90 356.364655
16.91 353.566223
16.92 363.334381
16.93 363.719727
16.94 360.63446
16.95 360.270325
16.96 354.713501
16.97 350.871674
16.98 352.871399
16.99 358.504883
17.00 359.852051
17.01 359.574585
17.02 361.910828
17.03 360.020935
17.04 353.328949
17.05 354.620819
17.06 358.753601
17.07 360.936859
17.08 367.10556
17.09 371.006897
17.10 367.242249
17.11 363.936157
17.12 367.952881
17.13 370.361206
17.14 366.976257
17.15 366.944641
17.16 369.866791
17.17 370.529602
17.18 370.106659
17.19 366.029419
17.20 365.209412
17.21 364.587921
17.22 363.496796
17.23 361.205719
17.24 360.236359
17.25 361.964569
17.26 373.325897
17.27 372.852692
17.28 364.627472
17.29 364.914734
17.30 373.071533
17.31 380.809814
17.32 377.508148
17.33 376.294617
17.34 382.848175
17.35 383.627899
17.36 370.352692
17.37 371.006653
17.38 374.092804
17.39 371.283203
17.40 377.084015
17.41 381.306641
17.42 383.611145
17.43 386.449219
17.44 386.018433
17.45 382.267731
17.46 378.532043
17.47 377.80069
17.48 378.874908
17.49 380.375854
17.50 379.755157
17.51 384.845856
17.52 381.717133
17.53 378.635284
17.54 383.216705
17.55 387.684143
17.56 390.929993
17.57 387.934296
17.58 376.865692
17.59 373.876007
17.60 375.581879
17.61 382.816254
17.62 382.482605
17.63 378.7034
17.64 382.701691
17.65 377.141693
17.66 367.692352
17.67 370.46109
17.68 376.288757
17.69 386.032318
17.70 393.38205
17.71 386.629364
17.72 381.650818
17.73 380.021332
17.74 377.210602
17.75 383.985382
17.76 387.546875
17.77 381.937653
17.78 380.465363
17.79 380.55011
17.80 381.167297
17.81 384.786957
17.82 390.789215
17.83 397.769592
17.84 403.36731
17.85 396.74115
17.86 391.615173
17.87 389.201111
17.88 395.043671
17.89 400.595734
17.90 393.971222
17.91 392.485809
17.92 396.460693
17.93 399.849976
17.94 402.302063
17.95 405.63327
17.96 406.159882
17.97 400.677551
17.98 397.08139
17.99 395.008118
18.00 395.295044
18.01 398.989441
18.02 398.906311
18.03 393.558899
18.04 394.319672
18.05 391.930664
18.06 391.919739
18.07 398.492126
18.08 396.988098
18.09 402.715881
18.10 408.788574
18.11 408.466187
18.12 413.404968
18.13 417.162109
18.14 411.621613
18.15 400.877014
18.16 393.979706
18.17 394.897736
18.18 397.177948
18.19 400.145996
18.20 398.072815
18.21 398.585419
18.22 404.178833
18.23 407.24939
18.24 409.414917
18.25 406.670624
18.26 405.273743
18.27 403.134277
18.28 404.675812
18.29 403.964142
18.30 406.427155
18.31 405.611877
18.32 408.064728
18.33 422.637665
18.34 432.058044
18.35 423.910583
18.36 422.420868
18.37 422.624725
18.38 419.930603
18.39 419.580322
18.40 411.990936
18.41 411.463806
18.42 412.832977
18.43 408.025421
18.44 404.182434
18.45 402.6763
18.46 408.112396
18.47 414.973145
18.48 412.943573
18.49 412.498627
18.50 417.91925
18.51 425.123169
18.52 422.735321
18.53 414.300598
18.54 413.709656
18.55 421.593048
18.56 423.041992
18.57 426.025116
18.58 435.587128
18.59 437.613159
18.60 431.511322
18.61 426.404114
18.62 424.104401
18.63 420.851807
18.64 412.463715
18.65 406.671082
18.66 408.208679
18.67 417.038727
18.68 424.296814
18.69 430.520935
18.70 434.775574
18.71 436.314728
18.72 433.185394
18.73 432.6987
18.74 428.31842
18.75 421.739441
18.76 417.341736
18.77 426.547729
18.78 438.60437
18.79 437.682953
18.80 434.629059
18.81 437.819305
18.82 439.209442
18.83 435.895264
18.84 435.368195
18.85 440.240906
18.86 443.38562
18.87 439.609863
18.88 436.605072
18.89 433.439514
18.90 436.201996
18.91 431.882233
18.92 428.88916
18.93 431.444427
18.94 430.903656
18.95 435.603943
18.96 440.216675
18.97 442.256561
18.98 439.595398
18.99 431.372955
19.00 426.672089
19.01 425.916473
19.02 426.742188
19.03 432.961365
19.04 439.300049
19.05 445.61618
19.06 442.733612
19.07 437.476715
19.08 442.704285
19.09 450.258545
19.10 447.632019
19.11 450.394684
19.12 455.278656
19.13 451.843048
19.14 453.038879
19.15 450.707764
19.16 446.011139
19.17 442.905365
19.18 450.462311
19.19 455.512299
19.20 450.068512
19.21 445.387726
19.22 447.59259
19.23 447.737244
19.24 451.987793
19.25 456.526794
19.26 453.210602
19.27 447.500305
19.28 447.677948
19.29 450.191742
19.30 450.11203
19.31 456.562531
19.32 452.788635
19.33 447.496704
19.34 453.171448
19.35 452.188385
19.36 446.378357
19.37 448.243164
19.38 456.459229
19.39 463.452576
19.40 464.294037
19.41 460.672607
19.42 458.339783
19.43 461.497864
19.44 465.466248
19.45 468.100159
19.46 471.343781
19.47 470.984436
19.48 467.661743
19.49 469.821014
19.50 462.798431
19.51 453.010223
19.52 462.729675
19.53 474.9505
19.54 479.225098
19.55 479.090332
19.56 470.941071
19.57 466.698425
19.58 468.28183
19.59 471.569122
19.60 472.231689
19.61 468.895172
19.62 463.16922
19.63 464.517212
19.64 476.482544
19.65 486.447235
19.66 478.170166
19.67 466.170227
19.68 466.980408
19.69 469.846252
19.70 470.275574
19.71 474.090149
19.72 478.045013
19.73 470.328461
19.74 467.195251
19.75 480.456543
19.76 486.377563
19.77 486.906586
19.78 486.763306
19.79 483.570953
19.80 481.246399
19.81 487.866974
19.82 486.720917
19.83 475.878082
19.84 478.014954
19.85 478.273743
19.86 479.553436
19.87 486.50766
19.88 492.17215
19.89 488.015015
19.90 485.975372
19.91 488.474213
19.92 494.920746
19.93 488.529388
19.94 484.739319
19.95 485.369537
19.96 476.828888
19.97 473.373505
19.98 482.658386
19.99 491.132599
20.00 489.686798
20.01 488.088806
20.02 483.155853
20.03 478.770172
20.04 481.330658
20.05 482.560333
20.06 487.017761
20.07 492.586945
20.08 496.302979
20.09 496.996613
20.10 496.757019
20.11 500.37384
20.12 504.391266
20.13 496.402771
20.14 494.602936
20.15 499.213165
20.16 504.113953
20.17 508.16394
20.18 511.608521
20.19 515.104553
20.20 517.067505
20.21 513.307434
20.22 504.475586
20.23 496.096039
20.24 502.856445
20.25 509.158722
20.26 511.888977
20.27 515.798645
20.28 504.269867
20.29 492.9198
20.30 494.933594
20.31 497.012177
20.32 507.960083
20.33 520.928101
20.34 524.465698
20.35 522.379822
20.36 518.799072
20.37 512.521973
20.38 509.581573
20.39 504.459686
20.40 497.070374
20.41 504.551117
20.42 506.784698
20.43 510.014221
20.44 516.306458
20.45 508.309631
20.46 510.469025
20.47 510.177338
20.48 512.637329
20.49 524.492004
20.50 524.960022
20.51 518.127197
20.52 510.05957
20.53 511.845062
20.54 527.26886
20.55 532.554138
20.56 522.802856
20.57 519.09259
20.58 524.873962
20.59 528.041626
20.60 529.224121
20.61 521.344421
20.62 519.927246
20.63 524.125183
20.64 528.754944
20.65 536.087585
20.66 543.266357
20.67 543.159424
20.68 542.384705
20.69 544.121826
20.70 536.654297
20.71 525.661987
20.72 521.714111
20.73 525.95105
20.74 528.656555
20.75 523.449951
20.76 526.386597
20.77 527.525879
20.78 531.729736
20.79 536.573914
20.80 536.234619
20.81 540.197632
20.82 536.957214
20.83 530.168274
20.84 531.285522
20.85 537.645813
20.86 540.864929
20.87 543.227478
20.88 552.852112
20.89 557.148743
20.90 553.837769
20.91 550.297302
20.92 551.863647
20.93 547.271301
20.94 546.023926
20.95 547.300415
20.96 546.685486
20.97 546.922729
20.98 542.111206
20.99 547.039551
21.00 543.290833
21.01 547.231812
21.02 562.781372
21.03 562.597473
21.04 558.157593
21.05 562.805542
21.06 569.657654
21.07 563.273743
21.08 552.906372
21.09 554.107544
21.10 560.21106
21.11 563.881409
21.12 568.276184
21.13 568.9552
21.14 568.496155
21.15 569.590332
21.16 572.457458
21.17 580.202393
21.18 584.311829
21.19 582.754028
21.20 579.176392
21.21 565.200195
21.22 566.283386
21.23 576.944214
21.24 579.75769
21.25 585.174255
21.26 586.569763
21.27 590.427734
21.28 595.552612
21.29 599.346863
21.30 601.528687
21.31 600.273071
21.32 596.042908
21.33 599.572388
21.34 600.659241
21.35 600.012146
21.36 619.004822
21.37 625.873962
21.38 621.921082
21.39 619.890015
21.40 614.070435
21.41 616.473938
21.42 630.971069
21.43 630.034546
21.44 627.767639
21.45 638.914612
21.46 637.095093
21.47 631.808167
21.48 626.750549
21.49 628.083374
21.50 633.632568
21.51 636.273499
21.52 636.199219
21.53 628.624023
21.54 621.166443
21.55 624.598145
21.56 629.033325
21.57 638.294006
21.58 642.819092
21.59 635.132813
21.60 621.256836
21.61 617.984131
21.62 613.924438
21.63 610.356445
21.64 611.973083
21.65 617.052429
21.66 615.350342
21.67 614.387451
21.68 613.540833
21.69 614.236877
21.70 618.236206
21.71 617.47876
21.72 614.489746
21.73 610.061279
21.74 607.405701
21.75 613.702637
21.76 617.170105
21.77 610.552124
21.78 606.162964
21.79 604.00885
21.80 603.60791
21.81 605.778748
21.82 608.226746
21.83 607.68866
21.84 602.134705
21.85 605.386353
21.86 612.26239
21.87 611.715698
21.88 604.075317
21.89 597.987
21.90 602.880371
21.91 604.76062
21.92 601.072632
21.93 599.487244
21.94 605.672058
21.95 610.796265
21.96 619.269653
21.97 620.122742
21.98 615.493713
21.99 612.233215
22.00 607.668945
22.01 608.148804
22.02 609.17511
22.03 613.498718
22.04 616.969666
22.05 607.291199
22.06 600.225769
22.07 600.555725
22.08 595.761292
22.09 587.092896
22.10 586.717651
22.11 598.119263
22.12 610.837036
22.13 616.828857
22.14 608.952637
22.15 602.807617
22.16 610.11554
22.17 620.774841
22.18 617.976074
22.19 613.832336
22.20 617.315613
22.21 619.646484
22.22 619.800293
22.23 615.268799
22.24 612.685486
22.25 614.089233
22.26 622.865356
22.27 621.717651
22.28 622.472229
22.29 618.415955
22.30 607.814575
22.31 607.121155
22.32 614.160645
22.33 614.360535
22.34 614.569763
22.35 613.442505
22.36 611.549866
22.37 605.697388
22.38 610.722107
22.39 619.378357
22.40 627.510193
22.41 626.908569
22.42 623.998474
22.43 623.006226
22.44 617.770569
22.45 618.214722
22.46 620.835266
22.47 618.109558
22.48 619.687378
22.49 610.946411
22.50 610.059082
22.51 616.141541
22.52 620.768372
22.53 618.2453
22.54 610.966919
22.55 613.470764
22.56 623.172424
22.57 624.557617
22.58 611.810181
22.59 606.437073
22.60 603.398865
22.61 601.843323
22.62 606.092896
22.63 616.554077
22.64 622.215454
22.65 617.381287
22.66 620.536072
22.67 632.442566
22.68 633.49469
22.69 625.787354
22.70 627.07251
22.71 636.734558
22.72 634.239929
22.73 630.469666
22.74 635.098877
22.75 629.569763
22.76 620.452148
22.77 617.747925
22.78 622.302185
22.79 625.841797
22.80 631.208679
22.81 639.421143
22.82 639.878906
22.83 633.417847
22.84 631.827698
22.85 631.250671
22.86 628.972473
22.87 625.563538
22.88 627.502014
22.89 630.700806
22.90 627.862976
22.91 625.730408
22.92 633.70282
22.93 638.342957
22.94 636.948792
22.95 631.905151
22.96 626.367249
22.97 631.784851
22.98 639.322144
22.99 641.1922
23.00 642.251404
23.01 642.264587
23.02 633.959229
23.03 630.986145
23.04 633.58905
23.05 630.4328
23.06 626.508057
23.07 627.381165
23.08 641.283203
23.09 643.748169
23.10 640.534119
23.11 649.588379
23.12 649.836243
23.13 642.023743
23.14 638.849121
23.15 635.681335
23.16 631.289124
23.17 630.724915
23.18 631.482056
23.19 637.427063
23.20 641.163208
23.21 635.264343
23.22 639.022034
23.23 639.088745
23.24 635.1875
23.25 630.573669
23.26 624.825134
23.27 635.947693
23.28 638.408936
23.29 634.328735
23.30 633.407715
23.31 637.217041
23.32 639.390442
23.33 638.286316
23.34 645.622864
23.35 645.031189
23.36 631.094116
23.37 624.402588
23.38 625.775269
23.39 632.057007
23.40 636.156616
23.41 631.295349
23.42 629.251038
23.43 629.745972
23.44 631.321472
23.45 636.961548
23.46 642.567749
23.47 633.734497
23.48 630.218872
23.49 633.991699
23.50 639.063599
23.51 631.205383
23.52 632.276245
23.53 641.634949
23.54 642.717285
23.55 632.933594
23.56 633.437805
23.57 643.698364
23.58 642.337341
23.59 644.701355
23.60 642.787781
23.61 644.547119
23.62 649.071472
23.63 647.020935
23.64 642.926636
23.65 639.326538
23.66 631.916077
23.67 635.633423
23.68 643.433716
23.69 644.795471
23.70 649.103149
23.71 650.302124
23.72 645.8573
23.73 638.846619
23.74 641.954346
23.75 641.144043
23.76 641.442261
23.77 645.704712
23.78 648.853394
23.79 651.551208
23.80 649.744385
23.81 639.897095
23.82 640.533508
23.83 639.599487
23.84 635.168213
23.85 638.431519
23.86 643.090027
23.87 639.09967
23.88 638.719116
23.89 650.877563
23.90 652.166016
23.91 639.215698
23.92 641.15979
23.93 650.604797
23.94 644.571533
23.95 637.488403
23.96 639.969177
23.97 640.329346
23.98 636.962585
23.99 636.988831
24.00 640.487427
24.01 640.67749
24.02 644.181641
24.03 653.946045
24.04 657.38269
24.05 649.622986
24.06 645.302002
24.07 642.120789
24.08 641.812622
24.09 642.539734
24.10 644.108398
24.11 641.926208
24.12 643.596252
24.13 652.37439
24.14 653.811218
24.15 645.802368
24.16 633.348267
24.17 632.673279
24.18 645.187744
24.19 651.685852
24.20 653.207153
24.21 655.240234
24.22 655.455444
24.23 654.056213
24.24 658.700928
24.25 661.544922
24.26 667.202332
24.27 668.87677
24.28 673.481384
24.29 676.401917
24.30 673.919983
24.31 668.237061
24.32 661.166809
24.33 656.5802
24.34 652.695801
24.35 652.239197
24.36 649.482056
24.37 656.209045
24.38 661.461731
24.39 663.939453
24.40 662.227295
24.41 664.780273
24.42 671.509766
24.43 667.241821
24.44 670.284241
24.45 668.63147
24.46 661.729919
24.47 664.099182
24.48 662.544373
24.49 667.269043
24.50 664.477661
24.51 648.865356
24.52 645.285156
24.53 650.030762
24.54 645.374023
24.55 647.395325
24.56 652.652466
24.57 655.576965
24.58 658.77594
24.59 659.039307
24.60 657.838928
24.61 653.277405
24.62 650.511414
24.63 652.306702
24.64 649.835632
24.65 654.120789
24.66 661.182739
24.67 662.113892
24.68 654.492249
24.69 648.670532
24.70 644.24115
24.71 643.920776
24.72 647.625977
24.73 651.410522
24.74 651.254944
24.75 647.497925
24.76 647.970276
24.77 654.272644
24.78 656.924377
24.79 658.299011
24.80 659.212646
24.81 657.970032
24.82 662.545471
24.83 658.29718
24.84 659.650208
24.85 662.105225
24.86 648.057495
24.87 644.035217
24.88 646.477173
24.89 649.21991
24.90 651.751343
24.91 654.754578
24.92 655.033752
24.93 659.030151
24.94 652.352966
24.95 643.493103
24.96 643.172607
24.97 641.074158
24.98 641.617676
24.99 643.724548
25.00 651.531555
25.01 653.663635
25.02 647.930603
25.03 645.963684
25.04 649.237732
25.05 657.716675
25.06 663.670898
25.07 662.456482
25.08 658.647461
25.09 659.833923
25.10 653.198059
25.11 641.897705
25.12 646.62384
25.13 652.530884
25.14 654.450073
25.15 653.900452
25.16 656.077759
25.17 656.570984
25.18 651.531982
25.19 648.627991
25.20 650.1922
25.21 650.403381
25.22 650.301086
25.23 658.111145
25.24 662.538757
25.25 660.318115
25.26 659.55603
25.27 652.652771
25.28 643.377441
25.29 641.736145
25.30 647.251343
25.31 652.915955
25.32 648.345032
25.33 640.115967
25.34 643.623962
25.35 648.051086
25.36 649.000977
25.37 644.359497
25.38 646.649353
25.39 652.941711
25.40 643.62616
25.41 635.865906
25.42 645.861084
25.43 649.563721
25.44 644.088135
25.45 644.907288
25.46 653.695557
25.47 652.516357
25.48 651.595764
25.49 645.236511
25.50 643.137695
25.51 640.313721
25.52 641.048523
25.53 653.12439
25.54 662.910339
25.55 655.522827
25.56 638.894775
25.57 635.128601
25.58 640.760132
25.59 646.103394
25.60 644.760193
25.61 648.03479
25.62 651.753906
25.63 651.149841
25.64 657.965698
25.65 650.812195
25.66 647.135803
25.67 653.15979
25.68 652.733948
25.69 650.820435
25.70 658.423218
25.71 651.631836
25.72 641.077576
25.73 640.271484
25.74 651.183472
25.75 656.50177
25.76 645.463135
25.77 640.639343
25.78 641.526733
25.79 647.83844
25.80 652.605164
25.81 647.611023
25.82 642.030151
25.83 636.919128
25.84 637.096802
25.85 645.857849
25.86 652.507568
25.87 653.641174
25.88 653.473267
25.89 645.477112
25.90 642.174744
25.91 650.028076
25.92 649.052307
25.93 639.264282
25.94 642.627258
25.95 642.404846
25.96 646.116211
25.97 648.339233
25.98 646.508606
25.99 639.936157
26.00 630.827698
26.01 632.001953
26.02 645.632813
26.03 650.220703
26.04 648.243164
26.05 644.962891
26.06 644.341309
26.07 653.144043
26.08 655.932129
26.09 653.224854
26.10 649.42157
26.11 648.079468
26.12 653.127563
26.13 652.534912
26.14 652.106445
26.15 653.271301
26.16 651.157532
26.17 648.174316
26.18 648.095093
26.19 644.302734
26.20 638.253845
26.21 641.229248
26.22 650.260071
26.23 652.719849
26.24 646.842407
26.25 646.987976
26.26 652.111206
26.27 648.490295
26.28 645.453308
26.29 649.234985
26.30 648.394165
26.31 642.82019
26.32 640.998657
26.33 634.233704
26.34 628.921082
26.35 628.8396
26.36 636.905823
26.37 649.365295
26.38 645.489319
26.39 633.254883
26.40 632.28418
26.41 642.98938
26.42 651.084961
26.43 652.111389
26.44 652.950439
26.45 658.682739
26.46 661.09906
26.47 651.057251
26.48 645.668945
26.49 645.543579
26.50 639.597595
26.51 643.652039
26.52 643.99646
26.53 632.187561
26.54 627.578674
26.55 626.572937
26.56 626.330505
26.57 637.252747
26.58 644.850342
26.59 643.879517
26.60 640.495911
26.61 636.472229
26.62 633.600525
26.63 629.685425
26.64 632.351379
26.65 633.278198
26.66 638.115112
26.67 634.723877
26.68 632.799255
26.69 642.99884
26.70 655.03241
26.71 652.520691
26.72 643.206299
26.73 640.87677
26.74 643.817444
26.75 643.057434
26.76 638.000854
26.77 640.964905
26.78 638.694275
26.79 627.093445
26.80 632.43988
26.81 638.785034
26.82 640.467651
26.83 640.630554
26.84 640.330322
26.85 639.210022
26.86 636.953857
26.87 637.716614
26.88 642.181091
26.89 638.611084
26.90 639.909668
26.91 641.054321
26.92 636.886414
26.93 638.260315
26.94 633.453918
26.95 629.235535
26.96 629.010864
26.97 625.492798
26.98 627.587952
26.99 630.915894
27.00 633.544617
27.01 638.022949
27.02 637.916199
27.03 637.794922
27.04 635.302368
27.05 631.359192
27.06 632.371643
27.07 632.041321
27.08 625.238586
27.09 621.306335
27.10 620.724426
27.11 627.117981
27.12 637.727173
27.13 639.930847
27.14 643.771423
27.15 646.90094
27.16 637.234924
27.17 624.343323
27.18 628.288147
27.19 634.363586
27.20 634.696472
27.21 638.026123
27.22 646.064636
27.23 634.354065
27.24 623.763794
27.25 627.267456
27.26 625.10199
27.27 630.499756
27.28 642.363159
27.29 643.703369
27.30 640.564087
27.31 641.252869
27.32 643.76947
27.33 641.518799
27.34 635.10437
27.35 627.35498
27.36 619.842224
27.37 621.822571
27.38 629.012695
27.39 635.759033
27.40 642.376465
27.41 634.640869
27.42 632.707825
27.43 641.81427
27.44 634.787903
27.45 632.136597
27.46 634.868286
27.47 627.861023
27.48 626.818298
27.49 630.927246
27.50 633.572937
27.51 634.062134
27.52 625.390442
27.53 618.850281
27.54 618.945129
27.55 627.170837
27.56 630.43866
27.57 630.08136
27.58 638.143372
27.59 635.336182
27.60 628.232849
27.61 625.880737
27.62 628.386536
27.63 626.342712
27.64 623.072632
27.65 620.449097
27.66 619.505493
27.67 619.021484
27.68 624.134033
27.69 627.281067
27.70 624.71521
27.71 620.711914
27.72 627.329346
27.73 638.512695
27.74 638.492554
27.75 630.03302
27.76 627.131592
27.77 628.084595
27.78 626.125549
27.79 623.898682
27.80 624.991455
27.81 626.895691
27.82 630.865112
27.83 635.367615
27.84 638.32312
27.85 633.602112
27.86 631.847107
27.87 633.194336
27.88 631.356628
27.89 635.504822
27.90 634.779724
27.91 633.404846
27.92 634.766663
27.93 630.971802
27.94 630.079956
27.95 630.890564
27.96 625.950562
27.97 619.947632
27.98 621.183411
27.99 627.846008
28.00 630.467041
28.01 624.457458
28.02 621.929016
28.03 629.277405
28.04 633.680237
28.05 629.676392
28.06 627.791382
28.07 623.843445
28.08 620.370789
28.09 621.059143
28.10 618.426514
28.11 610.793945
28.12 614.112854
28.13 619.261475
28.14 618.237793
28.15 617.380554
28.16 623.328979
28.17 628.131714
28.18 626.637207
28.19 623.682861
28.20 622.260132
28.21 616.827393
28.22 618.016418
28.23 621.724121
28.24 625.998901
28.25 628.979858
28.26 629.579468
28.27 620.788879
28.28 609.818054
28.29 605.268127
28.30 609.836121
28.31 616.340271
28.32 617.953247
28.33 616.614563
28.34 619.755249
28.35 618.822571
28.36 616.595703
28.37 617.624756
28.38 615.453552
28.39 612.590454
28.40 615.137878
28.41 624.584473
28.42 622.728943
28.43 610.624939
28.44 608.594299
28.45 609.806458
28.46 614.731201
28.47 622.404968
28.48 627.818726
28.49 629.491028
28.50 628.012817
28.51 623.24585
28.52 617.257568
28.53 612.430969
28.54 614.457336
28.55 612.761169
28.56 614.825134
28.57 617.773926
28.58 619.341248
28.59 620.315735
28.60 622.411499
28.61 622.369324
28.62 620.020203
28.63 619.197144
28.64 617.890625
28.65 619.201721
28.66 617.364014
28.67 612.451538
28.68 614.533447
28.69 616.58075
28.70 618.33606
28.71 614.11676
28.72 615.091492
28.73 613.023438
28.74 606.987183
28.75 611.570068
28.76 613.057068
28.77 612.180481
28.78 615.14447
28.79 619.083313
28.80 616.195496
28.81 610.613586
28.82 609.364319
28.83 611.933838
28.84 612.449036
28.85 615.08252
28.86 614.129761
28.87 601.364868
28.88 600.1297
28.89 614.707397
28.90 619.979797
28.91 619.453308
28.92 612.787964
28.93 610.885376
28.94 610.519714
28.95 614.995605
28.96 618.540222
28.97 609.794067
28.98 606.398865
28.99 613.180664
29.00 611.137024
29.01 608.784668
29.02 609.462036
29.03 613.63916
29.04 616.691467
29.05 616.157898
29.06 616.763794
29.07 614.498474
29.08 613.823914
29.09 614.212524
29.10 616.048706
29.11 617.638611
29.12 613.766663
29.13 611.050964
29.14 605.568726
29.15 603.950989
29.16 604.117249
29.17 605.858032
29.18 605.25708
29.19 609.204834
29.20 615.014404
29.21 614.151123
29.22 617.43158
29.23 616.080933
29.24 602.886536
29.25 607.601746
29.26 614.973877
29.27 611.702576
29.28 614.165833
29.29 614.35437
29.30 608.571838
29.31 607.444336
29.32 609.878357
29.33 613.095764
29.34 610.114685
29.35 610.161621
29.36 609.802307
29.37 603.621399
29.38 606.1026
29.39 610.020081
29.40 616.095825
29.41 615.797852
29.42 614.320374
29.43 614.728455
29.44 616.104248
29.45 614.125671
29.46 614.055481
29.47 616.697144
29.48 616.063049
29.49 619.677368
29.50 624.278076
29.51 621.222961
29.52 622.845703
29.53 615.849609
29.54 608.310913
29.55 606.277771
29.56 600.850769
29.57 599.551514
29.58 600.959045
29.59 606.07135
29.60 605.47052
29.61 606.257629
29.62 614.000732
29.63 618.260681
29.64 620.773315
29.65 619.258545
29.66 624.216736
29.67 627.703979
29.68 631.827454
29.69 622.285645
29.70 611.765564
29.71 612.353943
29.72 606.315979
29.73 599.557678
29.74 601.591675
29.75 603.890625
29.76 607.231262
29.77 616.573608
29.78 623.587585
29.79 622.325867
29.80 613.945862
29.81 616.750061
29.82 623.415649
29.83 620.544556
29.84 618.686768
29.85 624.409241
29.86 623.978088
29.87 621.624451
29.88 617.910156
29.89 624.152893
29.90 625.715393
29.91 622.862549
29.92 618.791077
29.93 612.181335
29.94 610.194275
29.95 614.398438
29.96 616.12915
29.97 616.7052
29.98 614.189331
29.99 613.157593
30.00 617.701355
30.01 616.165405
30.02 607.511658
30.03 597.619324
30.04 600.099548
30.05 607.930542
30.06 611.909302
30.07 620.357361
30.08 629.830566
30.09 635.188904
30.10 627.329285
30.11 625.525085
30.12 627.008667
30.13 625.651306
30.14 625.531555
30.15 632.083191
30.16 639.314758
30.17 636.2005
30.18 633.07666
30.19 631.141418
30.20 630.317993
30.21 639.55365
30.22 642.96991
30.23 641.43512
30.24 646.031433
30.25 650.327576
30.26 654.913269
30.27 662.029602
30.28 661.972839
30.29 667.132874
30.30 671.855774
30.31 674.914001
30.32 671.082397
30.33 669.44574
30.34 674.373718
30.35 682.744141
30.36 692.015259
30.37 701.11377
30.38 707.011597
30.39 709.941956
30.40 714.131409
30.41 723.153931
30.42 726.13446
30.43 730.331909
30.44 742.925598
30.45 757.957275
30.46 774.513245
30.47 783.595398
30.48 783.550476
30.49 786.051941
30.50 799.116394
30.51 807.633972
30.52 814.904541
30.53 825.106689
30.54 840.216919
30.55 858.544006
30.56 871.972473
30.57 885.082092
30.58 884.03717
30.59 886.243286
30.60 891.239807
30.61 899.122314
30.62 904.395813
30.63 909.456177
30.64 908.0578
30.65 899.562866
30.66 887.738403
30.67 878.744873
30.68 869.082642
30.69 867.537292
30.70 858.99292
30.71 849.412598
30.72 830.406067
30.73 814.054688
30.74 802.403625
30.75 794.092407
30.76 791.443542
30.77 785.504944
30.78 777.045593
30.79 754.373108
30.80 741.283203
30.81 727.492676
30.82 721.598938
30.83 706.247009
30.84 685.896606
30.85 680.200195
30.86 672.594177
30.87 672.240601
30.88 674.827698
30.89 665.017822
30.90 649.757141
30.91 645.545654
30.92 640.815369
30.93 647.061462
30.94 651.842773
30.95 647.167297
30.96 647.797668
30.97 636.832764
30.98 631.040161
30.99 631.36261
31.00 630.13208
31.01 625.869812
31.02 626.115662
31.03 626.300842
31.04 625.876892
31.05 624.643311
31.06 616.186279
31.07 604.943848
31.08 600.59198
31.09 602.941162
31.10 609.435791
31.11 609.723511
31.12 608.805115
31.13 604.725891
31.14 602.133484
31.15 603.059387
31.16 600.967102
31.17 601.135986
31.18 599.795044
31.19 597.996887
31.20 600.61908
31.21 600.540344
31.22 599.853149
31.23 600.023315
31.24 599.242798
31.25 600.486023
31.26 603.41626
31.27 607.246948
31.28 602.464417
31.29 606.883118
31.30 611.210876
31.31 601.490784
31.32 598.157471
31.33 607.5578
31.34 609.217163
31.35 607.37616
31.36 606.454956
31.37 597.419495
31.38 594.0755
31.39 595.655334
31.40 594.733948
31.41 587.686523
31.42 581.702881
31.43 584.956543
31.44 587.985352
31.45 591.224915
31.46 595.016663
31.47 591.76123
31.48 592.502563
31.49 595.624023
31.50 596.552307
31.51 596.222412
31.52 599.065735
31.53 597.101013
31.54 588.052734
31.55 582.530701
31.56 589.235291
31.57 596.771912
31.58 596.999084
31.59 596.96698
31.60 590.507874
31.61 581.606689
31.62 578.328613
31.63 576.745422
31.64 571.734802
31.65 574.425964
31.66 584.98877
31.67 589.644775
31.68 583.991577
31.69 579.76947
31.70 577.50708
31.71 575.228455
31.72 573.121033
31.73 574.37793
31.74 578.379395
31.75 582.579834
31.76 586.388916
31.77 578.446167
31.78 573.979614
31.79 572.483765
31.80 569.380737
31.81 579.199646
31.82 578.807983
31.83 567.198914
31.84 561.437195
31.85 561.705322
31.86 559.876099
31.87 562.479675
31.88 567.806763
31.89 571.509033
31.90 569.337585
31.91 566.674805
31.92 564.396484
31.93 563.208008
31.94 560.043518
31.95 563.142334
31.96 564.419739
31.97 563.711975
31.98 557.557861
31.99 551.006531
32.00 556.770447
32.01 564.81366
32.02 561.388611
32.03 561.234497
32.04 556.319946
32.05 549.995361
32.06 553.708191
32.07 561.111145
32.08 562.092712
32.09 556.190796
32.10 554.959167
32.11 559.810059
32.12 555.006653
32.13 556.44928
32.14 556.242432
32.15 552.633606
32.16 557.789185
32.17 558.043335
32.18 549.513306
32.19 548.587341
32.20 553.77356
32.21 553.487854
32.22 554.501709
32.23 554.998108
32.24 553.992126
32.25 556.613281
32.26 562.534424
32.27 562.792969
32.28 558.289856
32.29 554.58667
32.30 549.73053
32.31 543.728638
32.32 543.137634
32.33 542.452515
32.34 541.879578
32.35 543.692505
32.36 544.5495
32.37 538.007385
32.38 537.587036
32.39 539.58783
32.40 542.528198
32.41 547.997437
32.42 544.770203
32.43 544.855469
32.44 550.877991
32.45 548.195923
32.46 545.262512
32.47 538.00354
32.48 530.068665
32.49 538.053528
32.50 549.59436
32.51 552.446106
32.52 551.703552
32.53 549.98877
32.54 545.60498
32.55 540.7099
32.56 536.028748
32.57 532.856812
32.58 534.275452
32.59 533.429382
32.60 528.045837
32.61 537.379639
32.62 539.539734
32.63 536.018982
32.64 533.416809
32.65 526.720337
32.66 526.919617
32.67 536.1203
32.68 541.752625
32.69 538.763428
32.70 540.422058
32.71 540.766418
32.72 538.043091
32.73 537.676819
32.74 538.191406
32.75 547.162781
32.76 549.091919
32.77 546.173035
32.78 539.634277
32.79 537.378479
32.80 536.706726
32.81 529.700928
32.82 524.548889
32.83 524.564209
32.84 525.883423
32.85 526.795288
32.86 530.977051
32.87 532.537109
32.88 530.691833
32.89 530.610474
32.90 525.701477
32.91 521.745117
32.92 524.117798
32.93 524.026672
32.94 521.480225
32.95 525.51355
32.96 535.591858
32.97 532.452332
32.98 530.683655
32.99 528.877136
33.00 526.80304
33.01 524.409912
33.02 523.058411
33.03 525.470459
33.04 522.492981
33.05 515.349121
33.06 517.977417
33.07 526.573364
33.08 527.411377
33.09 524.073669
33.10 523.092224
33.11 522.850403
33.12 517.284363
33.13 512.078186
33.14 512.049438
33.15 518.005676
33.16 517.582275
33.17 514.795532
33.18 514.829529
33.19 513.521057
33.20 513.786438
33.21 521.503662
33.22 522.270813
33.23 516.162231
33.24 518.299988
33.25 520.812439
33.26 525.097656
33.27 527.448242
33.28 529.095581
33.29 522.961731
33.30 516.284058
33.31 516.099426
33.32 517.784058
33.33 516.893311
33.34 514.567017
33.35 518.150696
33.36 518.602295
33.37 511.799591
33.38 509.376923
33.39 511.953003
33.40 513.21106
33.41 518.248779
33.42 522.669067
33.43 524.763489
33.44 525.261108
33.45 518.792114
33.46 520.081055
33.47 516.084473
33.48 514.693176
33.49 525.686462
33.50 531.151855
33.51 525.43634
33.52 520.120911
33.53 519.576904
33.54 521.067566
33.55 515.339355
33.56 516.995483
33.57 519.559082
33.58 515.070129
33.59 514.361694
33.60 518.264526
33.61 518.397278
33.62 516.565552
33.63 521.685547
33.64 520.591248
33.65 517.282166
33.66 516.540405
33.67 518.977173
33.68 520.104919
33.69 526.813049
33.70 525.560669
33.71 516.738037
33.72 513.477966
33.73 515.535339
33.74 518.324707
33.75 519.639343
33.76 521.565125
33.77 520.40509
33.78 523.951599
33.79 526.237061
33.80 529.050049
33.81 528.78833
33.82 523.146118
33.83 521.960938
33.84 520.942078
33.85 515.019165
33.86 513.764343
33.87 514.845825
33.88 517.528564
33.89 527.472412
33.90 534.973572
33.91 532.941528
33.92 533.822876
33.93 539.195984
33.94 532.267456
33.95 524.54248
33.96 528.135437
33.97 528.158325
33.98 530.960754
33.99 540.215942
34.00 547.864929
34.01 549.8078
34.02 551.633728
34.03 550.294434
34.04 548.732056
34.05 546.06366
34.06 546.750793
34.07 555.137695
34.08 561.579346
34.09 563.106689
34.10 556.938843
34.11 552.908325
34.12 557.548096
34.13 558.476868
34.14 562.647766
34.15 567.112
34.16 563.671509
34.17 569.3974
34.18 574.115356
34.19 575.762695
34.20 584.928528
34.21 590.368835
34.22 589.120972
34.23 586.575562
34.24 582.488464
34.25 586.042725
34.26 586.717773
34.27 576.312866
34.28 572.132141
34.29 581.253418
34.30 590.518677
34.31 587.657227
34.32 587.081482
34.33 585.872925
34.34 580.30365
34.35 585.32312
34.36 591.482727
34.37 590.484741
34.38 587.479065
34.39 581.611877
34.40 583.869324
34.41 585.818237
34.42 581.006104
34.43 573.99353
34.44 567.436951
34.45 563.863098
34.46 570.937012
34.47 575.021545
34.48 566.236511
34.49 562.45105
34.50 563.13446
34.51 559.85675
34.52 564.500366
34.53 562.529053
34.54 555.158142
34.55 554.220459
34.56 551.563538
34.57 550.089783
34.58 547.542419
34.59 534.538452
34.60 527.900818
34.61 523.418396
34.62 520.847168
34.63 520.2948
34.64 517.35968
34.65 515.050659
34.66 512.473938
34.67 518.901062
34.68 524.771912
34.69 516.096008
34.70 514.268921
34.71 512.060974
34.72 506.606079
34.73 506.855286
34.74 506.106018
34.75 502.893219
34.76 499.590546
34.77 504.37207
34.78 506.777771
34.79 504.158142
34.80 499.797028
34.81 497.099792
34.82 495.36853
34.83 493.308655
34.84 489.223999
34.85 487.441589
34.86 493.027893
34.87 488.592285
34.88 483.698853
34.89 484.370941
34.90 483.002411
34.91 484.560486
34.92 489.874359
34.93 490.562775
34.94 481.044708
34.95 472.575714
34.96 475.440613
34.97 480.070618
34.98 477.486176
34.99 473.06015
35.00 469.321838
35.01 468.373047
35.02 472.856995
35.03 474.007507
35.04 476.688416
35.05 475.030975
35.06 471.262482
35.07 469.92691
35.08 466.437988
35.09 463.647339
35.10 461.97522
35.11 459.073303
35.12 461.075256
35.13 462.231476
35.14 462.077606
35.15 463.244293
35.16 462.279724
35.17 458.777344
35.18 450.637726
35.19 452.344421
35.20 461.204132
35.21 463.415619
35.22 462.5224
35.23 459.19931
35.24 454.479095
35.25 451.408508
35.26 449.946228
35.27 448.545593
35.28 450.147552
35.29 457.252747
35.30 453.481689
35.31 452.899384
35.32 460.198334
35.33 457.509857
35.34 453.546967
35.35 449.851868
35.36 446.83609
35.37 445.91333
35.38 443.498871
35.39 443.891968
35.40 443.015106
35.41 443.212219
35.42 443.852966
35.43 443.447357
35.44 443.869141
35.45 449.53421
35.46 444.175262
35.47 438.843536
35.48 441.430298
35.49 445.536194
35.50 444.138031
35.51 436.315948
35.52 437.126526
35.53 435.360931
35.54 427.979248
35.55 433.234467
35.56 438.332275
35.57 441.145721
35.58 443.52948
35.59 436.947205
35.60 430.88269
35.61 427.060242
35.62 430.287354
35.63 433.894806
35.64 437.971497
35.65 437.468964
35.66 440.710754
35.67 445.899048
35.68 445.647858
35.69 439.270935
35.70 434.883026
35.71 431.090149
35.72 426.913055
35.73 429.083557
35.74 432.76236
35.75 430.497253
35.76 430.920837
35.77 433.957794
35.78 427.435303
35.79 422.942719
35.80 420.094635
35.81 418.925751
35.82 418.912537
35.83 418.925476
35.84 425.063782
35.85 425.894714
35.86 424.285004
35.87 424.260529
35.88 419.419312
35.89 415.4104
35.90 417.938385
35.91 422.767639
35.92 423.365387
35.93 430.027222
35.94 434.54306
35.95 426.477905
35.96 420.334625
35.97 418.520477
35.98 416.527039
35.99 418.29422
36.00 424.511993
36.01 423.139648
36.02 416.443237
36.03 417.952759
36.04 418.117645
36.05 420.456635
36.06 424.282104
36.07 418.522919
36.08 415.209045
36.09 416.294708
36.10 413.953522
36.11 414.203613
36.12 413.877808
36.13 414.942322
36.14 419.808105
36.15 419.459839
36.16 413.512695
36.17 410.659668
36.18 408.351257
36.19 408.687256
36.20 408.700867
36.21 410.361145
36.22 413.119019
36.23 415.240082
36.24 412.991882
36.25 413.608276
36.26 416.442383
36.27 414.330597
36.28 411.08197
36.29 409.052429
36.30 410.608429
36.31 417.024689
36.32 425.42691
36.33 423.107788
36.34 415.583801
36.35 414.602295
36.36 408.333344
36.37 403.557648
36.38 408.414459
36.39 412.323242
36.40 406.516663
36.41 401.054321
36.42 404.509644
36.43 411.003571
36.44 417.295532
36.45 418.151031
36.46 413.270416
36.47 408.543396
36.48 405.02594
36.49 402.478943
36.50 400.495178
36.51 406.859192
36.52 404.870483
36.53 402.611694
36.54 409.36441
36.55 411.997223
36.56 407.664551
36.57 403.731323
36.58 403.979187
36.59 402.609375
36.60 396.653748
36.61 395.819611
36.62 396.756775
36.63 401.554657
36.64 403.353363
36.65 401.966705
36.66 400.679169
36.67 400.34433
36.68 400.675903
36.69 404.639709
36.70 407.241913
36.71 402.935425
36.72 399.772339
36.73 401.335449
36.74 404.845856
36.75 406.767609
36.76 406.432465
36.77 402.553558
36.78 400.029236
36.79 401.712158
36.80 402.207336
36.81 400.811859
36.82 400.70578
36.83 400.689941
36.84 401.742096
36.85 402.812836
36.86 399.159546
36.87 394.559662
36.88 398.96701
36.89 401.206757
36.90 393.479401
36.91 395.813721
36.92 396.274933
36.93 394.540802
36.94 398.507996
36.95 399.125732
36.96 397.791931
36.97 392.61142
36.98 388.1698
36.99 389.481384
37.00 393.970978
37.01 395.070984
37.02 393.112732
37.03 394.759277
37.04 392.040894
37.05 392.345795
37.06 396.679565
37.07 397.574036
37.08 400.432434
37.09 402.588196
37.10 391.153076
37.11 386.12265
37.12 388.769836
37.13 392.266357
37.14 395.409576
37.15 390.844635
37.16 386.464966
37.17 387.520721
37.18 384.865967
37.19 385.130157
37.20 387.050293
37.21 385.381195
37.22 382.997131
37.23 381.153717
37.24 377.7005
37.25 377.131622
37.26 384.596619
37.27 388.586975
37.28 385.812256
37.29 383.350311
37.30 381.700867
37.31 376.502655
37.32 379.678558
37.33 386.765564
37.34 382.472748
37.35 383.069519
37.36 385.561157
37.37 383.484894
37.38 379.066956
37.39 381.799927
37.40 384.364014
37.41 379.114136
37.42 378.77652
37.43 384.578674
37.44 390.003845
37.45 394.335083
37.46 394.725159
37.47 391.594513
37.48 385.040527
37.49 378.451355
37.50 385.246338
37.51 390.159607
37.52 387.377411
37.53 387.628174
37.54 390.697449
37.55 394.682129
37.56 398.781647
37.57 399.167969
37.58 398.595734
37.59 398.194061
37.60 398.807892
37.61 397.710327
37.62 393.448242
37.63 390.695709
37.64 393.988586
37.65 392.141937
37.66 387.504791
37.67 387.99057
37.68 390.195709
37.69 391.904236
37.70 392.512238
37.71 391.700348
37.72 392.980957
37.73 395.06778
37.74 398.850159
37.75 399.487915
37.76 398.43396
37.77 398.755066
37.78 391.607819
37.79 390.867828
37.80 398.114868
37.81 393.437103
37.82 386.636505
37.83 379.149933
37.84 378.375214
37.85 378.745911
37.86 376.154358
37.87 380.28656
37.88 380.702972
37.89 379.181061
37.90 379.441528
37.91 384.503326
37.92 391.070313
37.93 392.216736
37.94 384.893921
37.95 377.238251
37.96 378.65918
37.97 377.808594
37.98 376.665558
37.99 379.701752
38.00 378.233459
38.01 377.346497
38.02 380.314941
38.03 379.586578
38.04 373.811584
38.05 373.75882
38.06 378.60788
38.07 371.649689
38.08 365.057343
38.09 369.5448
38.10 370.275879
38.11 370.074493
38.12 372.204529
38.13 370.56778
38.14 366.585541
38.15 364.882599
38.16 370.074677
38.17 366.16864
38.18 360.713226
38.19 360.496826
38.20 361.108948
38.21 366.948883
38.22 370.296875
38.23 367.912659
38.24 368.660156
38.25 371.164581
38.26 367.975189
38.27 364.722168
38.28 362.871613
38.29 360.127136
38.30 361.880981
38.31 361.280731
38.32 363.361115
38.33 366.287048
38.34 371.337585
38.35 370.256042
38.36 365.958191
38.37 362.361908
38.38 356.530182
38.39 357.692261
38.40 356.366974
38.41 355.187378
38.42 356.974091
38.43 360.723297
38.44 362.986847
38.45 359.775726
38.46 359.923615
38.47 364.207794
38.48 359.923615
38.49 357.109619
38.50 354.482635
38.51 349.664368
38.52 356.799683
38.53 360.434875
38.54 357.776062
38.55 359.5896
38.56 358.405457
38.57 355.588745
38.58 357.129303
38.59 359.373016
38.60 360.226959
38.61 361.105591
38.62 356.139496
38.63 355.371124
38.64 361.497894
38.65 359.88147
38.66 356.094299
38.67 355.502258
38.68 354.321838
38.69 354.492737
38.70 355.184235
38.71 354.422485
38.72 354.898102
38.73 355.950012
38.74 353.362
38.75 354.524231
38.76 356.956451
38.77 358.829681
38.78 359.646423
38.79 350.056305
38.80 345.636505
38.81 350.381348
38.82 356.177185
38.83 352.557861
38.84 351.941833
38.85 356.796387
38.86 362.129944
38.87 358.346985
38.88 354.564514
38.89 359.870026
38.90 359.037659
38.91 353.673309
38.92 356.430695
38.93 358.032166
38.94 355.306519
38.95 355.612457
38.96 354.609375
38.97 354.624115
38.98 354.124969
38.99 349.422485
39.00 349.493896
39.01 351.427887
39.02 348.029327
39.03 344.738129
39.04 345.998779
39.05 342.806763
39.06 343.08963
39.07 344.243774
39.08 348.772583
39.09 349.22229
39.10 346.017181
39.11 348.089508
39.12 354.511261
39.13 357.202972
39.14 352.367493
39.15 351.823914
39.16 353.590424
39.17 353.417725
39.18 357.27179
39.19 352.135071
39.20 343.848053
39.21 344.033203
39.22 344.307831
39.23 345.794983
39.24 345.230408
39.25 349.804413
39.26 357.151917
39.27 357.545654
39.28 354.615509
39.29 354.593658
39.30 356.056152
39.31 353.743164
39.32 351.406067
39.33 349.526428
39.34 344.666718
39.35 346.016968
39.36 345.928467
39.37 344.231537
39.38 344.241821
39.39 347.285828
39.40 351.630127
39.41 352.449249
39.42 349.390289
39.43 351.549774
39.44 356.512665
39.45 356.108185
39.46 351.948059
39.47 345.505737
39.48 347.453735
39.49 352.261932
39.50 352.226257
39.51 352.956085
39.52 348.943878
39.53 347.546967
39.54 349.349457
39.55 347.308441
39.56 347.249634
39.57 348.439331
39.58 348.652466
39.59 343.156311
39.60 340.873962
39.61 341.003296
39.62 339.11438
39.63 342.534515
39.64 349.347656
39.65 356.896759
39.66 351.646881
39.67 344.614868
39.68 343.726013
39.69 346.05484
39.70 344.122223
39.71 343.228851
39.72 347.282593
39.73 350.576294
39.74 350.750916
39.75 347.978851
39.76 350.518463
39.77 353.432526
39.78 350.854828
39.79 348.173798
39.80 346.940582
39.81 343.443909
39.82 346.590515
39.83 348.836548
39.84 344.972107
39.85 343.199402
39.86 342.390045
39.87 341.85672
39.88 342.447052
39.89 342.722198
39.90 342.869537
39.91 344.606384
39.92 343.488647
39.93 344.701691
39.94 348.032806
39.95 346.589569
39.96 348.837769
39.97 351.286743
39.98 349.951233
39.99 347.673553
40.00 345.107056
40.01 346.456543
40.02 347.211487
40.03 342.481476
40.04 343.576416
40.05 346.810577
40.06 346.575317
40.07 343.823151
40.08 342.353333
40.09 341.668488
40.10 344.485901
40.11 346.197205
40.12 346.577637
40.13 348.148163
40.14 352.832367
40.15 353.103363
40.16 349.198334
40.17 346.318848
40.18 340.373749
40.19 338.19339
40.20 339.040009
40.21 340.614594
40.22 341.867249
40.23 346.416321
40.24 345.633728
40.25 344.089752
40.26 347.220154
40.27 348.15683
40.28 350.145599
40.29 349.097748
40.30 345.42749
40.31 343.925598
40.32 343.274414
40.33 344.690338
40.34 345.595581
40.35 343.391235
40.36 342.442169
40.37 343.919495
40.38 344.320465
40.39 344.11087
40.40 342.563965
40.41 345.563324
40.42 348.680176
40.43 348.492828
40.44 343.057617
40.45 337.853516
40.46 334.618134
40.47 336.38382
40.48 343.00705
40.49 346.584503
40.50 345.621979
40.51 342.292267
40.52 341.844025
40.53 342.666138
40.54 343.996674
40.55 344.383789
40.56 346.418427
40.57 347.822144
40.58 348.659363
40.59 348.569153
40.60 344.001617
40.61 341.18042
40.62 345.036743
40.63 347.431152
40.64 344.967224
40.65 340.986816
40.66 343.362976
40.67 344.293671
40.68 341.088318
40.69 335.128784
40.70 337.366821
40.71 343.693542
40.72 345.652832
40.73 346.429382
40.74 341.850891
40.75 344.174072
40.76 342.713013
40.77 334.187561
40.78 336.176178
40.79 335.252838
40.80 337.387543
40.81 343.921143
40.82 343.977509
40.83 345.545013
40.84 338.397888
40.85 331.453278
40.86 329.168671
40.87 327.627014
40.88 333.639954
40.89 339.084869
40.90 341.814392
40.91 343.309174
40.92 343.905731
40.93 345.209442
40.94 344.519043
40.95 344.143188
40.96 343.265503
40.97 342.830475
40.98 345.082123
40.99 346.849792
41.00 344.782562
41.01 343.370453
41.02 343.09201
41.03 340.756073
41.04 345.957275
41.05 345.870911
41.06 338.819061
41.07 337.091339
41.08 336.903076
41.09 342.17868
41.10 344.860352
