!@!!GADDS PLOTSO FILE: Chi integration type
!@!!Title/SampleName: MAPbIBrCl_10min
!@!!User: NREL
!@!!Site: NREL SERF C211; SN 2510
!@!!Frame: C:\frames\rbelisle\ExSitu_MAPbIBrCl\081922_MAPbIBrCl_10min_000_004.gfrm
!@!!Wavelengths    1.54184   1.54056   1.54439
!@!!Frame angles: 2Theta: 28.000 Omega: 5.000 Phi: 0.000 Chi: 90.000
!@!!Integration range: 2Theta: 10.000 to 40.000  Gamma: -100.000 to -80.000
!@!!Integration method: bin normalized
!@!N
!@!SS
!@!M
!@!L 0.0 0.0 0.0 0.0
!@!XDegrees
!@!YCounts
10.00 197.683594
10.02 221.076553
10.04 193.834396
10.06 200.587418
10.08 206.401398
10.10 184.946808
10.12 196.821243
10.14 191.234558
10.16 202.472336
10.18 185.083313
10.20 187.24614
10.22 184.321243
10.24 206.702896
10.26 207.399658
10.28 213.002518
10.30 203.894913
10.32 205.137085
10.34 214.590439
10.36 201.203384
10.38 193.044693
10.40 211.272812
10.42 210.078018
10.44 213.677917
10.46 193.070007
10.48 194.296738
10.50 198.107498
10.52 208.609268
10.54 213.393738
10.56 201.543869
10.58 188.324066
10.60 196.202011
10.62 207.739609
10.64 211.169495
10.66 211.983475
10.68 212.997345
10.70 221.9384
10.72 216.368896
10.74 208.968628
10.76 212.825424
10.78 207.386902
10.80 212.478455
10.82 199.818176
10.84 207.098221
10.86 203.56395
10.88 199.464386
10.90 221.759827
10.92 224.224655
10.94 233.015305
10.96 226.970749
10.98 211.46875
11.00 220.87851
11.02 230.906662
11.04 237.605469
11.06 227.202606
11.08 209.431366
11.10 226.988464
11.12 232.803314
11.14 223.081573
11.16 213.892166
11.18 229.818192
11.20 218.519547
11.22 217.686752
11.24 235.226532
11.26 219.39006
11.28 230.587433
11.30 232.341965
11.32 239.731033
11.34 247.808899
11.36 234.942368
11.38 230.024719
11.40 226.845261
11.42 227.571609
11.44 230.155685
11.46 239.967987
11.48 247.184189
11.50 256.614594
11.52 259.348511
11.54 244.284866
11.56 230.277344
11.58 242.230057
11.60 239.674332
11.62 235.761337
11.64 240.24646
11.66 253.99559
11.68 262.619598
11.70 249.130951
11.72 252.007462
11.74 262.393921
11.76 258.801666
11.78 251.829895
11.80 282.38208
11.82 284.769287
11.84 272.597168
11.86 281.100403
11.88 270.12149
11.90 277.510895
11.92 278.473572
11.94 281.028442
11.96 299.932251
11.98 315.753021
12.00 329.161987
12.02 327.069305
12.04 318.024902
12.06 334.163605
12.08 353.273804
12.10 359.880432
12.12 377.226685
12.14 396.238617
12.16 401.092926
12.18 423.201813
12.20 416.897797
12.22 430.222137
12.24 458.642548
12.26 481.215149
12.28 487.34082
12.30 512.50824
12.32 541.277649
12.34 555.99054
12.36 559.223267
12.38 587.792358
12.40 615.11853
12.42 630.548828
12.44 652.190002
12.46 674.508362
12.48 718.451782
12.50 750.535645
12.52 771.49054
12.54 772.942505
12.56 800.112427
12.58 794.602478
12.60 787.325134
12.62 785.057678
12.64 782.877686
12.66 791.00177
12.68 808.649475
12.70 785.768127
12.72 709.863281
12.74 671.615356
12.76 648.659729
12.78 651.016296
12.80 593.563232
12.82 557.72821
12.84 538.483643
12.86 500.552246
12.88 483.101532
12.90 476.579407
12.92 448.500793
12.94 422.056458
12.96 409.575439
12.98 387.050018
13.00 396.653107
13.02 359.378204
13.04 366.587006
13.06 354.244415
13.08 348.536316
13.10 346.553284
13.12 333.874573
13.14 327.652466
13.16 330.463684
13.18 323.252655
13.20 316.441956
13.22 311.467743
13.24 308.337036
13.26 328.071167
13.28 321.442749
13.30 326.829498
13.32 336.082153
13.34 304.067261
13.36 305.792847
13.38 311.933807
13.40 320.904388
13.42 318.517944
13.44 309.699127
13.46 328.159882
13.48 317.549835
13.50 318.849457
13.52 306.857788
13.54 315.453186
13.56 324.450378
13.58 333.436401
13.60 351.60437
13.62 339.617188
13.64 327.231537
13.66 324.945618
13.68 321.812469
13.70 342.672699
13.72 332.439484
13.74 297.980743
13.76 305.111603
13.78 356.469482
13.80 352.715393
13.82 338.777191
13.84 327.877594
13.86 341.280396
13.88 359.475494
13.90 368.036224
13.92 369.2948
13.94 362.087494
13.96 356.285278
13.98 374.781769
14.00 386.717773
14.02 400.830048
14.04 413.037262
14.06 428.703644
14.08 412.120697
14.10 423.843353
14.12 428.684448
14.14 448.371704
14.16 455.016724
14.18 483.393005
14.20 507.829193
14.22 529.450745
14.24 596.266785
14.26 592.3526
14.28 623.484253
14.30 642.651184
14.32 680.842041
14.34 715.817871
14.36 744.27887
14.38 777.476379
14.40 853.749634
14.42 934.559753
14.44 988.848999
14.46 1066.159912
14.48 1116.824219
14.50 1224.515259
14.52 1305.204834
14.54 1414.442871
14.56 1520.000977
14.58 1588.43396
14.60 1659.851807
14.62 1734.220947
14.64 1850.212891
14.66 1973.06958
14.68 2107.665771
14.70 2184.83667
14.72 2277.902344
14.74 2445.045898
14.76 2547.30127
14.78 2639.588135
14.80 2729.977051
14.82 2834.156006
14.84 2934.416504
14.86 3071.057373
14.88 3138.091309
14.90 3121.096924
14.92 3044.126709
14.94 2965.369385
14.96 2984.691162
14.98 2949.720215
15.00 2838.02417
15.02 2701.664795
15.04 2514.217285
15.06 2311.675537
15.08 2148.253662
15.10 1955.502686
15.12 1765.600952
15.14 1585.111694
15.16 1418.314941
15.18 1290.072876
15.20 1182.484497
15.22 1050.505859
15.24 970.809265
15.26 868.424744
15.28 784.553711
15.30 728.945496
15.32 729.374023
15.34 691.854065
15.36 618.475525
15.38 576.619019
15.40 560.383789
15.42 543.070984
15.44 530.995544
15.46 510.015991
15.48 487.046417
15.50 452.865631
15.52 466.844421
15.54 438.470001
15.56 435.590485
15.58 435.053009
15.60 407.235016
15.62 426.381958
15.64 395.260132
15.66 384.638611
15.68 393.000122
15.70 409.90979
15.72 377.450134
15.74 373.26712
15.76 370.077393
15.78 377.426178
15.80 387.320648
15.82 393.596893
15.84 379.016357
15.86 383.416443
15.88 399.859863
15.90 371.435242
15.92 360.990967
15.94 341.52417
15.96 359.335541
15.98 360.695435
16.00 347.705994
16.02 328.085144
16.04 333.689911
16.06 356.597931
16.08 358.370789
16.10 346.76297
16.12 350.634094
16.14 345.327148
16.16 369.836761
16.18 369.112122
16.20 359.371094
16.22 326.226837
16.24 346.645386
16.26 350.450714
16.28 349.0495
16.30 374.608826
16.32 373.127808
16.34 374.86026
16.36 360.82959
16.38 355.228699
16.40 337.490387
16.42 357.369537
16.44 371.43045
16.46 363.862518
16.48 376.204742
16.50 355.366699
16.52 330.777557
16.54 340.605072
16.56 350.303192
16.58 367.619263
16.60 367.409302
16.62 375.951202
16.64 382.235779
16.66 359.961792
16.68 346.101105
16.70 357.244904
16.72 352.388
16.74 361.463867
16.76 356.029938
16.78 367.288727
16.80 375.78302
16.82 364.645416
16.84 364.410797
16.86 394.119293
16.88 362.446747
16.90 351.493561
16.92 351.812622
16.94 355.271515
16.96 359.313202
16.98 364.017029
17.00 385.102325
17.02 383.762787
17.04 363.148041
17.06 372.098816
17.08 389.37616
17.10 382.773682
17.12 401.577301
17.14 384.842102
17.16 369.605133
17.18 359.152374
17.20 368.648438
17.22 390.016235
17.24 380.058441
17.26 378.307556
17.28 372.103821
17.30 385.143005
17.32 383.314667
17.34 370.713135
17.36 369.535004
17.38 377.782471
17.40 383.410492
17.42 382.910736
17.44 385.626068
17.46 387.590302
17.48 372.534149
17.50 389.019379
17.52 399.362579
17.54 396.450806
17.56 380.19104
17.58 403.229553
17.60 389.110748
17.62 381.59137
17.64 382.680664
17.66 378.15033
17.68 386.713654
17.70 409.63089
17.72 412.164764
17.74 395.244781
17.76 395.241791
17.78 400.740479
17.80 404.069641
17.82 382.554962
17.84 398.107056
17.86 403.535522
17.88 393.69455
17.90 403.996368
17.92 413.361938
17.94 396.070129
17.96 409.86087
17.98 405.174255
18.00 398.854218
18.02 406.526855
18.04 425.869324
18.06 418.420044
18.08 415.104401
18.10 407.930756
18.12 402.048615
18.14 391.28241
18.16 410.216309
18.18 414.320374
18.20 423.129883
18.22 407.88266
18.24 405.123657
18.26 397.27652
18.28 405.498169
18.30 404.648926
18.32 403.977417
18.34 416.695526
18.36 454.534058
18.38 429.442261
18.40 415.575226
18.42 423.141785
18.44 440.855347
18.46 433.799622
18.48 423.30603
18.50 423.503052
18.52 411.693085
18.54 424.039642
18.56 435.749603
18.58 427.757446
18.60 419.900238
18.62 416.242706
18.64 430.100983
18.66 439.162811
18.68 426.229889
18.70 436.388214
18.72 423.976746
18.74 435.557281
18.76 443.694885
18.78 452.850861
18.80 451.830322
18.82 434.559357
18.84 427.035797
18.86 437.473724
18.88 444.50943
18.90 459.422333
18.92 472.005615
18.94 451.083984
18.96 448.43277
18.98 449.138611
19.00 437.688843
19.02 434.485687
19.04 456.691559
19.06 472.887909
19.08 485.327545
19.10 468.406281
19.12 473.610321
19.14 460.914154
19.16 472.881042
19.18 471.071838
19.20 472.527069
19.22 472.374817
19.24 471.952789
19.26 477.579041
19.28 472.463989
19.30 461.453064
19.32 461.129761
19.34 452.553223
19.36 443.915833
19.38 441.256287
19.40 461.706543
19.42 465.323639
19.44 467.930328
19.46 482.314117
19.48 482.680695
19.50 471.453888
19.52 473.193573
19.54 493.169556
19.56 493.135651
19.58 496.587341
19.60 491.224121
19.62 489.604584
19.64 499.076935
19.66 492.493011
19.68 484.463287
19.70 468.303528
19.72 458.392029
19.74 470.59259
19.76 474.185272
19.78 471.019165
19.80 488.461365
19.82 490.623962
19.84 474.741913
19.86 490.960419
19.88 503.134796
19.90 496.727753
19.92 507.093719
19.94 510.67041
19.96 517.059143
19.98 511.677856
20.00 510.191925
20.02 500.843933
20.04 528.216675
20.06 513.607422
20.08 495.510468
20.10 503.874634
20.12 513.99231
20.14 510.568756
20.16 504.281586
20.18 501.564392
20.20 511.812653
20.22 518.187195
20.24 523.511658
20.26 508.238312
20.28 512.013245
20.30 517.521912
20.32 534.501831
20.34 551.424255
20.36 530.108459
20.38 531.665283
20.40 521.138245
20.42 501.30957
20.44 505.621399
20.46 522.328247
20.48 530.937622
20.50 553.038635
20.52 558.006653
20.54 539.169495
20.56 526.046936
20.58 538.72699
20.60 537.767761
20.62 533.197998
20.64 554.272522
20.66 557.258179
20.68 569.929504
20.70 554.656799
20.72 547.6745
20.74 545.503845
20.76 564.363586
20.78 584.150146
20.80 554.023804
20.82 535.680786
20.84 544.148438
20.86 561.035095
20.88 561.750122
20.90 542.93103
20.92 575.11084
20.94 571.074951
20.96 572.115601
20.98 580.799866
21.00 566.676392
21.02 563.94165
21.04 566.682434
21.06 574.105652
21.08 579.737549
21.10 576.308105
21.12 592.225586
21.14 592.994019
21.16 585.436829
21.18 582.705872
21.20 594.744934
21.22 592.185181
21.24 580.940369
21.26 569.143921
21.28 591.758911
21.30 602.329529
21.32 597.124512
21.34 597.453979
21.36 605.738281
21.38 614.387207
21.40 598.979187
21.42 580.476746
21.44 583.919312
21.46 566.752869
21.48 598.48053
21.50 602.770752
21.52 593.856567
21.54 584.736694
21.56 583.191345
21.58 573.086914
21.60 577.058105
21.62 589.108582
21.64 586.599121
21.66 581.532349
21.68 584.395935
21.70 608.894226
21.72 607.160522
21.74 596.66571
21.76 589.345642
21.78 585.010254
21.80 581.52124
21.82 591.518066
21.84 596.131958
21.86 613.404907
21.88 608.052124
21.90 608.638977
21.92 586.405457
21.94 584.676758
21.96 603.144897
21.98 594.498535
22.00 579.256104
22.02 616.845581
22.04 627.426147
22.06 601.237915
22.08 600.886108
22.10 605.342346
22.12 595.30896
22.14 572.425781
22.16 607.123718
22.18 611.208374
22.20 614.626648
22.22 612.304871
22.24 612.643799
22.26 626.377991
22.28 628.469543
22.30 621.960388
22.32 600.453003
22.34 594.122986
22.36 604.749634
22.38 629.154297
22.40 621.506165
22.42 626.01532
22.44 634.447266
22.46 638.638794
22.48 633.291199
22.50 648.389709
22.52 624.709778
22.54 624.680603
22.56 637.458252
22.58 637.33252
22.60 627.292725
22.62 635.554993
22.64 632.492126
22.66 617.981934
22.68 613.292664
22.70 648.027954
22.72 653.386169
22.74 631.298828
22.76 650.055725
22.78 656.790466
22.80 654.763367
22.82 652.216553
22.84 625.738892
22.86 646.504395
22.88 655.561401
22.90 645.635376
22.92 652.140381
22.94 642.183228
22.96 658.391174
22.98 640.362793
23.00 633.623047
23.02 639.449158
23.04 659.28241
23.06 648.546692
23.08 655.047852
23.10 646.283752
23.12 646.34198
23.14 652.789856
23.16 650.615417
23.18 634.295593
23.20 647.186829
23.22 663.151489
23.24 660.974915
23.26 641.114868
23.28 660.897522
23.30 684.480957
23.32 673.714233
23.34 674.665833
23.36 652.997375
23.38 659.86615
23.40 675.766296
23.42 670.206604
23.44 646.959534
23.46 647.045654
23.48 640.727661
23.50 662.466064
23.52 662.090759
23.54 656.58606
23.56 643.579224
23.58 657.21698
23.60 658.471069
23.62 662.002502
23.64 671.590576
23.66 677.791138
23.68 675.384949
23.70 665.685242
23.72 657.915161
23.74 656.87738
23.76 671.885803
23.78 662.001892
23.80 662.446472
23.82 663.949524
23.84 654.435974
23.86 660.038757
23.88 662.010559
23.90 678.980103
23.92 653.74707
23.94 670.927795
23.96 670.080017
23.98 685.075989
24.00 680.655334
24.02 674.524719
24.04 684.405029
24.06 691.337952
24.08 685.300598
24.10 675.163696
24.12 682.180298
24.14 678.638672
24.16 660.880188
24.18 668.982422
24.20 682.836121
24.22 673.944641
24.24 667.944885
24.26 677.826965
24.28 678.921265
24.30 668.445923
24.32 680.062927
24.34 678.383911
24.36 687.711487
24.38 679.153198
24.40 697.403015
24.42 689.645386
24.44 673.298096
24.46 659.025574
24.48 672.187805
24.50 674.118164
24.52 662.783142
24.54 673.21344
24.56 682.198486
24.58 685.792786
24.60 658.431519
24.62 661.830261
24.64 660.665527
24.66 673.732544
24.68 673.604797
24.70 681.777161
24.72 684.304382
24.74 676.882385
24.76 663.948059
24.78 698.252319
24.80 712.667786
24.82 715.869019
24.84 709.141418
24.86 693.016418
24.88 672.964417
24.90 688.532715
24.92 697.559509
24.94 681.850952
24.96 677.871826
24.98 665.29071
25.00 674.381287
25.02 677.656067
25.04 676.232178
25.06 669.718018
25.08 689.09552
25.10 704.373047
25.12 714.304749
25.14 683.782349
25.16 671.187866
25.18 687.300476
25.20 705.062927
25.22 700.803894
25.24 714.8078
25.26 701.355957
25.28 693.97937
25.30 715.485596
25.32 703.819214
25.34 689.954529
25.36 689.678223
25.38 693.974182
25.40 687.515503
25.42 688.011536
25.44 691.78302
25.46 687.82251
25.48 702.578369
25.50 708.157532
25.52 693.439087
25.54 682.152527
25.56 697.254456
25.58 696.172119
25.60 690.207886
25.62 702.489502
25.64 701.951477
25.66 702.360474
25.68 693.151978
25.70 685.949707
25.72 688.789551
25.74 671.881836
25.76 671.30896
25.78 686.137939
25.80 703.722229
25.82 681.825073
25.84 677.303833
25.86 692.885437
25.88 689.733276
25.90 688.519592
25.92 693.061584
25.94 689.223083
25.96 695.751343
25.98 676.545349
26.00 672.728821
26.02 679.382751
26.04 683.986145
26.06 707.021851
26.08 681.334473
26.10 664.404175
26.12 659.458069
26.14 659.561218
26.16 660.479614
26.18 683.158264
26.20 676.183838
26.22 684.223938
26.24 686.673645
26.26 676.421692
26.28 690.762634
26.30 692.168396
26.32 691.227478
26.34 694.815063
26.36 672.949524
26.38 667.546082
26.40 671.030396
26.42 675.820129
26.44 678.604675
26.46 688.023376
26.48 693.631714
26.50 692.986145
26.52 658.220642
26.54 663.518494
26.56 670.142883
26.58 674.553223
26.60 675.578369
26.62 665.873169
26.64 671.707886
26.66 676.94165
26.68 676.498108
26.70 656.63501
26.72 671.661804
26.74 682.483337
26.76 660.863342
26.78 675.127197
26.80 672.113037
26.82 662.838684
26.84 665.964294
26.86 675.357178
26.88 663.840759
26.90 659.753906
26.92 646.713562
26.94 653.743652
26.96 672.180786
26.98 674.603699
27.00 671.082275
27.02 672.551392
27.04 674.026367
27.06 671.130066
27.08 684.886658
27.10 670.637329
27.12 658.097473
27.14 659.047302
27.16 677.117493
27.18 648.430481
27.20 653.850098
27.22 674.49823
27.24 677.87439
27.26 663.35376
27.28 657.319946
27.30 660.035767
27.32 668.635803
27.34 676.60199
27.36 687.858582
27.38 669.916809
27.40 665.532654
27.42 671.37323
27.44 678.035461
27.46 650.863708
27.48 632.705444
27.50 653.793274
27.52 647.117554
27.54 654.817566
27.56 657.66748
27.58 643.353882
27.60 643.444824
27.62 645.323669
27.64 662.59845
27.66 660.355591
27.68 662.93103
27.70 695.632202
27.72 703.617249
27.74 673.71228
27.76 654.948364
27.78 660.666077
27.80 676.220215
27.82 681.795227
27.84 692.842102
27.86 665.621887
27.88 647.27655
27.90 646.858459
27.92 640.329285
27.94 642.577759
27.96 655.59729
27.98 646.682861
28.00 638.114563
28.02 674.785828
28.04 673.230591
28.06 648.355713
28.08 655.909363
28.10 657.97229
28.12 645.7005
28.14 652.72113
28.16 658.493408
28.18 657.80481
28.20 657.54187
28.22 671.499573
28.24 672.585632
28.26 657.235535
28.28 644.623535
28.30 643.817627
28.32 660.695679
28.34 666.470886
28.36 672.541443
28.38 668.695984
28.40 664.184814
28.42 658.509277
28.44 653.845642
28.46 667.822388
28.48 663.847961
28.50 658.560547
28.52 657.18988
28.54 656.661743
28.56 662.44165
28.58 660.67511
28.60 666.262756
28.62 674.857605
28.64 663.514771
28.66 658.782288
28.68 664.256409
28.70 661.47699
28.72 662.445068
28.74 669.456055
28.76 681.513062
28.78 670.210938
28.80 648.168213
28.82 655.780518
28.84 656.358826
28.86 668.664429
28.88 671.12207
28.90 674.386169
28.92 677.770081
28.94 676.548279
28.96 675.742432
28.98 654.562195
29.00 656.555237
29.02 669.735535
29.04 675.723938
29.06 695.624207
29.08 690.614929
29.10 717.103516
29.12 696.609314
29.14 681.839355
29.16 697.97937
29.18 683.348328
29.20 693.799561
29.22 729.301636
29.24 727.743286
29.26 730.836975
29.28 728.235046
29.30 721.874695
29.32 750.574402
29.34 750.873657
29.36 755.106445
29.38 751.854309
29.40 757.439514
29.42 758.329712
29.44 771.083069
29.46 782.852356
29.48 803.627625
29.50 794.482361
29.52 807.991638
29.54 817.632874
29.56 841.564941
29.58 862.684753
29.60 857.194519
29.62 852.562378
29.64 877.348572
29.66 908.314941
29.68 893.072388
29.70 898.286682
29.72 914.729492
29.74 936.498108
29.76 942.553833
29.78 973.803101
29.80 975.84314
29.82 1001.941101
29.84 1048.504395
29.86 1032.902222
29.88 1040.173096
29.90 1069.298462
29.92 1084.609131
29.94 1132.791748
29.96 1130.30835
29.98 1162.848389
30.00 1193.842285
30.02 1211.13208
30.04 1224.782227
30.06 1265.117554
30.08 1298.851807
30.10 1311.258545
30.12 1280.621826
30.14 1307.653442
30.16 1313.33252
30.18 1335.759033
30.20 1327.003174
30.22 1322.939819
30.24 1305.417847
30.26 1283.226563
30.28 1265.115845
30.30 1256.671753
30.32 1208.729736
30.34 1139.838135
30.36 1097.710205
30.38 1073.486328
30.40 1041.31665
30.42 988.534546
30.44 935.528625
30.46 897.166382
30.48 881.319031
30.50 877.800537
30.52 844.419617
30.54 799.681702
30.56 792.48114
30.58 764.543518
30.60 741.142944
30.62 716.871033
30.64 722.438721
30.66 696.900574
30.68 680.353638
30.70 700.202576
30.72 696.656311
30.74 695.832581
30.76 683.459473
30.78 665.90979
30.80 671.227966
30.82 674.757324
30.84 670.466064
30.86 648.081238
30.88 642.616516
30.90 639.374207
30.92 641.365173
30.94 655.845154
30.96 639.071472
30.98 636.153564
31.00 631.368103
31.02 632.6474
31.04 630.799438
31.06 641.44812
31.08 623.199646
31.10 618.893677
31.12 610.01239
31.14 615.26947
31.16 621.59552
31.18 602.6875
31.20 603.27063
31.22 607.455627
31.24 614.945679
31.26 610.42511
31.28 614.94281
31.30 610.303711
31.32 612.87262
31.34 611.617371
31.36 613.515198
31.38 634.131287
31.40 621.781433
31.42 629.243896
31.44 617.709473
31.46 596.834351
31.48 609.392212
31.50 613.115295
31.52 601.270569
31.54 597.947083
31.56 603.2323
31.58 606.00592
31.60 582.910522
31.62 581.808655
31.64 593.888977
31.66 594.425476
31.68 588.194336
31.70 582.774536
31.72 584.948975
31.74 574.693726
31.76 580.874939
31.78 598.418762
31.80 590.409485
31.82 582.769043
31.84 598.544556
31.86 584.623718
31.88 566.615112
31.90 555.365601
31.92 564.873962
31.94 581.505127
31.96 572.452942
31.98 582.261353
32.00 591.219788
32.02 594.994629
32.04 589.24884
32.06 574.795715
32.08 568.816284
32.10 573.700806
32.12 559.478088
32.14 555.1026
32.16 561.777527
32.18 554.788391
32.20 566.998779
32.22 587.094116
32.24 569.597412
32.26 557.813354
32.28 564.877991
32.30 579.137756
32.32 578.654358
32.34 575.244873
32.36 560.813904
32.38 562.137024
32.40 554.413696
32.42 559.380371
32.44 560.31543
32.46 555.835266
32.48 560.542725
32.50 567.651978
32.52 570.596375
32.54 563.861816
32.56 548.871887
32.58 550.760071
32.60 546.909973
32.62 562.15387
32.64 565.760681
32.66 556.148071
32.68 558.281372
32.70 550.145935
32.72 561.481079
32.74 566.272278
32.76 559.083252
32.78 559.753967
32.80 543.506042
32.82 537.704895
32.84 560.297302
32.86 565.475952
32.88 549.997009
32.90 544.621216
32.92 553.636719
32.94 553.128418
32.96 544.469543
32.98 535.965637
33.00 532.138184
33.02 539.30365
33.04 550.681641
33.06 543.65094
33.08 544.783936
33.10 560.015869
33.12 565.537781
33.14 569.675415
33.16 571.471497
33.18 550.855835
33.20 533.213745
33.22 533.09259
33.24 549.997986
33.26 558.115906
33.28 556.160461
33.30 552.666626
33.32 553.713745
33.34 561.889099
33.36 549.350464
33.38 537.420593
33.40 531.18335
33.42 529.399841
33.44 543.747681
33.46 543.695374
33.48 545.108459
33.50 560.215881
33.52 555.199768
33.54 549.62085
33.56 530.806824
33.58 549.72821
33.60 548.338623
33.62 547.772827
33.64 555.325928
33.66 542.839661
33.68 539.151123
33.70 527.957275
33.72 522.84137
33.74 531.192566
33.76 542.991943
33.78 550.352661
33.80 536.312317
33.82 548.976135
33.84 538.531677
33.86 523.96936
33.88 528.313538
33.90 544.524902
33.92 545.855225
33.94 537.362488
33.96 538.582703
33.98 522.424988
34.00 520.120667
34.02 515.308838
34.04 524.310486
34.06 527.003784
34.08 534.64856
34.10 522.450378
34.12 519.680237
34.14 516.15979
34.16 507.805176
34.18 525.419128
34.20 525.385559
34.22 496.753479
34.24 498.36322
34.26 506.794769
34.28 493.27475
34.30 510.324432
34.32 512.414795
34.34 488.58432
34.36 490.152649
34.38 497.010834
34.40 492.396271
34.42 502.332458
34.44 499.354858
34.46 490.831787
34.48 512.150574
34.50 499.128876
34.52 485.185791
34.54 492.87915
34.56 482.542664
34.58 479.856262
34.60 474.612396
34.62 473.942535
34.64 468.480988
34.66 474.738495
34.68 471.587891
34.70 463.801483
34.72 476.074982
34.74 486.360748
34.76 481.881042
34.78 479.431213
34.80 480.242126
34.82 478.45694
34.84 479.20462
34.86 487.118164
34.88 493.584412
34.90 483.361206
34.92 479.269592
34.94 474.128754
34.96 464.071167
34.98 451.38501
35.00 461.965668
35.02 465.509186
35.04 466.138947
35.06 451.75943
35.08 449.67337
35.10 444.608307
35.12 454.917389
35.14 447.518921
35.16 451.105988
35.18 464.557434
35.20 471.774963
35.22 464.951721
35.24 470.402588
35.26 468.348724
35.28 466.665802
35.30 472.682037
35.32 473.201324
35.34 468.147888
35.36 447.925476
35.38 448.874664
35.40 453.661469
35.42 454.588043
35.44 440.561371
35.46 454.517578
35.48 448.041046
35.50 448.138458
35.52 443.296661
35.54 456.383484
35.56 448.80835
35.58 442.171783
35.60 436.467102
35.62 431.433136
35.64 444.269287
35.66 428.528107
35.68 430.971985
35.70 443.653076
35.72 439.60675
35.74 438.716614
35.76 441.789459
35.78 431.090515
35.80 435.62851
35.82 429.688477
35.84 416.591614
35.86 419.697388
35.88 423.965393
35.90 429.997589
35.92 430.756378
35.94 403.993683
35.96 415.898468
35.98 421.546356
36.00 416.268616
36.02 416.858002
36.04 428.031525
36.06 430.981171
36.08 427.083313
36.10 419.590668
36.12 424.904144
36.14 430.662109
36.16 420.323669
36.18 419.630096
36.20 419.094116
36.22 428.135773
36.24 402.872925
36.26 402.622162
36.28 414.958649
36.30 422.562714
36.32 419.774078
36.34 415.985565
36.36 409.189819
36.38 414.914063
36.40 422.671692
36.42 426.893158
36.44 411.215546
36.46 403.230835
36.48 417.532898
36.50 413.18866
36.52 408.746826
36.54 432.660889
36.56 414.424316
36.58 401.333099
36.60 410.897583
36.62 414.247528
36.64 403.922699
36.66 404.570343
36.68 410.59491
36.70 403.048462
36.72 399.020691
36.74 399.591431
36.76 401.091583
36.78 410.910889
36.80 390.844147
36.82 381.333954
36.84 409.540771
36.86 409.148193
36.88 415.011475
36.90 413.644073
36.92 402.983032
36.94 388.769653
36.96 399.996033
36.98 405.71051
37.00 401.82431
37.02 387.483337
37.04 392.130737
37.06 394.0336
37.08 384.500763
37.10 389.647522
37.12 410.194977
37.14 390.398926
37.16 385.180725
37.18 383.700836
37.20 382.861115
37.22 390.838745
37.24 383.106354
37.26 392.655701
37.28 392.810974
37.30 390.340668
37.32 378.414185
37.34 376.012024
37.36 402.434326
37.38 389.719452
37.40 383.710297
37.42 372.21048
37.44 373.761932
37.46 381.340179
37.48 382.930542
37.50 392.867218
37.52 382.812805
37.54 370.012573
37.56 363.975677
37.58 361.507416
37.60 378.594971
37.62 379.23349
37.64 366.939026
37.66 367.117554
37.68 373.309906
37.70 373.329285
37.72 371.264526
37.74 378.615204
37.76 363.894562
37.78 373.756714
37.80 365.971313
37.82 357.542755
37.84 370.061798
37.86 376.034821
37.88 365.255829
37.90 365.625488
37.92 372.121246
37.94 389.202728
37.96 379.898651
37.98 355.01004
38.00 355.467957
38.02 371.836426
38.04 371.812988
38.06 386.167816
38.08 379.876221
38.10 381.117035
38.12 363.48764
38.14 365.836334
38.16 358.046448
38.18 349.852692
38.20 372.12619
38.22 381.534882
38.24 355.052399
38.26 364.119873
38.28 375.558136
38.30 367.949371
38.32 358.140198
38.34 367.637238
38.36 376.691528
38.38 372.77594
38.40 381.717651
38.42 386.352173
38.44 383.946106
38.46 372.714294
38.48 385.503326
38.50 384.358917
38.52 385.342743
38.54 392.92865
38.56 399.270721
38.58 379.016876
38.60 379.61087
38.62 400.496338
38.64 392.518799
38.66 386.701874
38.68 380.250427
38.70 376.921356
38.72 376.050323
38.74 384.071167
38.76 376.170105
38.78 369.363983
38.80 370.969452
38.82 371.413025
38.84 369.3685
38.86 375.258301
38.88 362.913452
38.90 353.473053
38.92 359.268341
38.94 359.081085
38.96 353.302155
38.98 344.818848
39.00 351.09436
39.02 352.534943
39.04 356.941101
39.06 354.172821
39.08 349.615906
39.10 358.220001
39.12 352.129608
39.14 354.2341
39.16 344.300323
39.18 349.779114
39.20 344.588379
39.22 348.842194
39.24 353.162811
39.26 353.858704
39.28 358.662933
39.30 352.810608
39.32 357.063629
39.34 343.732758
39.36 339.506317
39.38 352.111511
39.40 364.040283
39.42 360.847961
39.44 345.512329
39.46 342.270508
39.48 347.056915
39.50 347.303589
39.52 356.8396
39.54 360.11792
39.56 344.36322
39.58 341.126556
39.60 340.858246
39.62 344.643677
39.64 339.845398
39.66 338.410828
39.68 341.944763
39.70 357.351624
39.72 356.832611
39.74 359.999298
39.76 346.187775
39.78 339.820129
39.80 359.575928
39.82 362.304535
39.84 345.046082
39.86 345.138336
39.88 350.374268
39.90 339.664581
39.92 351.361115
39.94 339.78183
39.96 351.333923
39.98 344.472992
40.00 347.608826
