!@!!GADDS PLOTSO FILE: Chi integration type
!@!!Title/SampleName: ML_MAPbX3
!@!!User: NREL
!@!!Site: NREL SERF C211; SN 2510
!@!!Frame: 081022_MLProject_000_007.gfrm
!@!!Wavelengths    1.54184   1.54056   1.54439
!@!!Frame angles: 2Theta: 28.000 Omega: 5.000 Phi: 0.000 Chi: 90.000
!@!!Integration range: 2Theta: 10.000 to 41.100  Gamma: -120.400 to -60.400
!@!!Integration method: bin normalized
!@!N
!@!SS
!@!M
!@!L 0.0 0.0 0.0 0.0
!@!XDegrees
!@!YCounts
10.00 201.100159
10.01 200.468063
10.02 198.683151
10.03 197.113144
10.04 199.187485
10.05 198.723145
10.06 199.885818
10.07 208.047287
10.08 203.576721
10.09 196.875366
10.10 205.61554
10.11 212.582367
10.12 212.508347
10.13 211.270538
10.14 207.162109
10.15 209.096695
10.16 214.626663
10.17 217.961105
10.18 223.175903
10.19 217.934372
10.20 211.748993
10.21 211.230194
10.22 212.271072
10.23 203.798798
10.24 203.961319
10.25 208.249512
10.26 203.382431
10.27 209.313553
10.28 217.808334
10.29 218.589554
10.30 217.998566
10.31 214.951447
10.32 213.79921
10.33 215.065659
10.34 212.700027
10.35 213.862793
10.36 209.321869
10.37 201.488617
10.38 202.9823
10.39 203.044174
10.40 206.756348
10.41 211.81044
10.42 211.590958
10.43 210.975327
10.44 213.3629
10.45 215.077774
10.46 215.09494
10.47 216.01915
10.48 211.134644
10.49 210.066803
10.50 216.975723
10.51 215.918945
10.52 211.318649
10.53 218.560913
10.54 220.33786
10.55 218.010254
10.56 211.564423
10.57 202.017181
10.58 203.959549
10.59 213.403534
10.60 223.746445
10.61 225.39389
10.62 226.973679
10.63 228.34906
10.64 226.689499
10.65 224.028839
10.66 220.722504
10.67 220.637421
10.68 221.582733
10.69 227.862518
10.70 224.898361
10.71 220.102005
10.72 215.771027
10.73 213.423035
10.74 216.304565
10.75 217.259552
10.76 216.138458
10.77 222.082809
10.78 219.640091
10.79 220.513138
10.80 220.507813
10.81 214.689178
10.82 212.0009
10.83 208.755386
10.84 209.039368
10.85 219.5784
10.86 228.419083
10.87 230.418045
10.88 227.164825
10.89 217.177719
10.90 221.80246
10.91 228.281235
10.92 229.739883
10.93 232.864288
10.94 237.925659
10.95 234.573135
10.96 227.855698
10.97 234.256073
10.98 236.587067
10.99 226.229691
11.00 226.511047
11.01 234.549942
11.02 232.270264
11.03 233.57811
11.04 230.354645
11.05 223.334183
11.06 219.428558
11.07 214.488846
11.08 223.496414
11.09 231.885605
11.10 234.090622
11.11 240.582397
11.12 240.688446
11.13 234.274124
11.14 237.773422
11.15 238.561356
11.16 234.42746
11.17 228.386917
11.18 225.55484
11.19 229.802261
11.20 228.992203
11.21 233.096695
11.22 236.139542
11.23 229.974075
11.24 228.748337
11.25 228.596573
11.26 232.02002
11.27 232.954254
11.28 234.779861
11.29 240.866486
11.30 244.012619
11.31 242.970566
11.32 231.231903
11.33 229.991531
11.34 234.086792
11.35 238.409546
11.36 242.502426
11.37 240.397034
11.38 240.505905
11.39 241.119049
11.40 242.079422
11.41 244.078888
11.42 249.183426
11.43 249.494308
11.44 248.590439
11.45 246.837418
11.46 244.498871
11.47 246.428726
11.48 250.218933
11.49 250.378326
11.50 249.410156
11.51 247.989456
11.52 248.524384
11.53 245.636414
11.54 240.16716
11.55 246.816101
11.56 249.442734
11.57 242.174149
11.58 241.846085
11.59 233.473709
11.60 226.833374
11.61 228.94455
11.62 232.692429
11.63 238.769791
11.64 236.593521
11.65 239.796951
11.66 249.739609
11.67 256.179718
11.68 253.40686
11.69 251.756287
11.70 252.158005
11.71 253.107132
11.72 254.237396
11.73 252.355728
11.74 254.307816
11.75 259.955261
11.76 255.032394
11.77 243.696411
11.78 243.762344
11.79 243.149536
11.80 249.32251
11.81 267.007141
11.82 269.580292
11.83 258.185516
11.84 255.345276
11.85 262.043488
11.86 267.449097
11.87 267.498657
11.88 267.529175
11.89 263.38382
11.90 249.183945
11.91 254.932983
11.92 267.973083
11.93 267.672333
11.94 262.328369
11.95 254.890976
11.96 255.020126
11.97 263.889465
11.98 270.932526
11.99 272.134247
12.00 272.673462
12.01 275.491943
12.02 277.217072
12.03 275.0271
12.04 276.507935
12.05 275.473236
12.06 278.299866
12.07 287.167725
12.08 290.87796
12.09 291.808441
12.10 291.871918
12.11 282.441772
12.12 274.314392
12.13 276.31723
12.14 288.579681
12.15 298.55542
12.16 305.716797
12.17 307.339478
12.18 303.043945
12.19 298.902649
12.20 301.213776
12.21 304.641022
12.22 308.322418
12.23 301.949799
12.24 294.639893
12.25 309.90033
12.26 318.179871
12.27 322.924316
12.28 328.156555
12.29 328.512909
12.30 344.920502
12.31 360.009521
12.32 364.26123
12.33 379.361786
12.34 374.375397
12.35 363.387329
12.36 363.945831
12.37 364.269775
12.38 367.320496
12.39 365.388367
12.40 360.181824
12.41 370.307617
12.42 381.539276
12.43 383.754944
12.44 391.968475
12.45 399.379639
12.46 401.294769
12.47 403.547852
12.48 410.624115
12.49 417.953613
12.50 424.203033
12.51 417.858124
12.52 407.153381
12.53 406.062531
12.54 416.052368
12.55 423.239136
12.56 432.157166
12.57 439.950409
12.58 444.580505
12.59 445.681061
12.60 444.950317
12.61 440.208496
12.62 433.343781
12.63 437.541199
12.64 439.702423
12.65 426.613342
12.66 416.906067
12.67 416.19339
12.68 408.981842
12.69 406.23468
12.70 404.155029
12.71 404.263184
12.72 402.725677
12.73 394.253204
12.74 391.558441
12.75 385.492798
12.76 379.308807
12.77 367.529785
12.78 354.003357
12.79 350.299255
12.80 351.045441
12.81 339.462799
12.82 332.545258
12.83 332.018768
12.84 342.740875
12.85 346.011108
12.86 337.652954
12.87 328.511597
12.88 325.02121
12.89 324.54071
12.90 324.878906
12.91 327.793335
12.92 328.855896
12.93 321.410461
12.94 307.416565
12.95 305.49527
12.96 302.883026
12.97 294.176544
12.98 294.914001
12.99 296.34259
13.00 293.68335
13.01 293.896698
13.02 297.115845
13.03 296.339447
13.04 299.577362
13.05 302.879974
13.06 302.25589
13.07 303.648163
13.08 306.354767
13.09 309.986816
13.10 303.880005
13.11 294.759033
13.12 294.257233
13.13 290.476746
13.14 283.0914
13.15 282.633423
13.16 278.878387
13.17 285.009918
13.18 295.401276
13.19 297.314728
13.20 290.449249
13.21 286.882263
13.22 290.002716
13.23 295.140289
13.24 292.793304
13.25 287.167908
13.26 290.655212
13.27 288.969421
13.28 287.731842
13.29 287.644989
13.30 287.345825
13.31 293.792175
13.32 290.560852
13.33 287.27597
13.34 287.465393
13.35 287.534119
13.36 293.92038
13.37 290.17691
13.38 286.595856
13.39 292.085052
13.40 290.320313
13.41 288.843109
13.42 287.423828
13.43 287.191498
13.44 292.408813
13.45 290.954102
13.46 297.253082
13.47 297.440552
13.48 293.688324
13.49 291.272552
13.50 290.450562
13.51 290.756256
13.52 284.427429
13.53 285.671448
13.54 296.201233
13.55 299.801453
13.56 296.201508
13.57 288.905762
13.58 286.698212
13.59 298.421173
13.60 307.578766
13.61 310.520142
13.62 308.504791
13.63 307.196655
13.64 309.892487
13.65 311.101654
13.66 316.163757
13.67 321.66272
13.68 321.199432
13.69 326.845154
13.70 329.442688
13.71 334.204285
13.72 332.985138
13.73 324.67569
13.74 328.950592
13.75 342.298615
13.76 347.481689
13.77 339.949738
13.78 334.395508
13.79 332.015961
13.80 341.037842
13.81 350.850708
13.82 351.891388
13.83 353.533813
13.84 356.820496
13.85 360.176178
13.86 367.105621
13.87 367.546112
13.88 358.793396
13.89 358.249725
13.90 371.796112
13.91 380.882782
13.92 392.497559
13.93 407.587708
13.94 413.449524
13.95 407.750946
13.96 406.125488
13.97 407.663025
13.98 419.859863
13.99 443.694946
14.00 444.685791
14.01 442.537781
14.02 450.16394
14.03 459.382843
14.04 471.160034
14.05 471.527802
14.06 475.524353
14.07 498.95639
14.08 506.071106
14.09 505.381348
14.10 526.470215
14.11 552.206543
14.12 560.524902
14.13 594.492432
14.14 613.939026
14.15 616.065247
14.16 624.143433
14.17 642.772766
14.18 651.874634
14.19 664.540527
14.20 688.28479
14.21 704.695557
14.22 730.585388
14.23 759.461914
14.24 796.43512
14.25 823.1474
14.26 843.244019
14.27 857.659241
14.28 877.407288
14.29 899.529297
14.30 927.194885
14.31 944.306641
14.32 975.351318
14.33 1002.465942
14.34 1037.983765
14.35 1064.02124
14.36 1091.878418
14.37 1121.234253
14.38 1138.597778
14.39 1145.421997
14.40 1168.377686
14.41 1184.068848
14.42 1195.798706
14.43 1211.0979
14.44 1213.135132
14.45 1211.174072
14.46 1218.413208
14.47 1221.013794
14.48 1208.9104
14.49 1195.831543
14.50 1173.448242
14.51 1138.490479
14.52 1122.046753
14.53 1108.983276
14.54 1095.072266
14.55 1067.727539
14.56 1045.562744
14.57 1001.813293
14.58 940.670593
14.59 911.257385
14.60 880.692871
14.61 849.625854
14.62 821.338928
14.63 808.479309
14.64 779.343323
14.65 741.193176
14.66 694.923157
14.67 670.32428
14.68 636.449158
14.69 619.145081
14.70 596.640625
14.71 576.619202
14.72 562.038879
14.73 551.9198
14.74 538.195068
14.75 527.659546
14.76 518.272217
14.77 493.602448
14.78 469.871582
14.79 460.941742
14.80 464.018402
14.81 455.560425
14.82 444.167694
14.83 433.223877
14.84 430.595795
14.85 425.24762
14.86 423.595978
14.87 412.242218
14.88 397.719025
14.89 388.160126
14.90 382.605255
14.91 370.587952
14.92 364.142883
14.93 373.732635
14.94 382.433838
14.95 384.828796
14.96 377.124603
14.97 371.223389
14.98 365.019409
14.99 356.005798
15.00 355.816803
15.01 364.641571
15.02 365.832275
15.03 363.537628
15.04 364.332123
15.05 357.341614
15.06 351.229248
15.07 355.360352
15.08 358.159088
15.09 358.771545
15.10 349.304901
15.11 338.71759
15.12 339.786285
15.13 349.507172
15.14 344.322632
15.15 336.008453
15.16 337.607819
15.17 334.451691
15.18 327.984406
15.19 326.604736
15.20 328.998779
15.21 330.232208
15.22 331.193512
15.23 336.902374
15.24 334.5578
15.25 324.340393
15.26 326.677185
15.27 329.948029
15.28 327.742798
15.29 324.880066
15.30 321.020355
15.31 325.774414
15.32 327.794891
15.33 318.403748
15.34 313.253418
15.35 315.828217
15.36 313.112274
15.37 310.433807
15.38 314.631866
15.39 324.13678
15.40 326.287048
15.41 323.287445
15.42 332.981323
15.43 336.218903
15.44 334.025665
15.45 331.190002
15.46 326.087708
15.47 325.947876
15.48 330.002319
15.49 335.12265
15.50 333.14328
15.51 326.425018
15.52 323.909302
15.53 329.89505
15.54 330.730469
15.55 330.153259
15.56 329.970673
15.57 325.899658
15.58 320.492371
15.59 318.18277
15.60 317.649109
15.61 313.303375
15.62 308.77121
15.63 316.019318
15.64 326.723816
15.65 328.415863
15.66 331.544037
15.67 330.599304
15.68 325.864471
15.69 322.349792
15.70 318.814331
15.71 324.224335
15.72 336.04129
15.73 336.589813
15.74 324.114716
15.75 321.442505
15.76 325.627045
15.77 328.286499
15.78 332.20816
15.79 335.525482
15.80 330.465851
15.81 328.794342
15.82 325.583527
15.83 329.561737
15.84 329.407532
15.85 325.432373
15.86 329.37146
15.87 328.994476
15.88 323.85614
15.89 320.826202
15.90 327.698395
15.91 332.498566
15.92 324.003082
15.93 319.293793
15.94 327.884735
15.95 338.61142
15.96 338.441284
15.97 340.27475
15.98 337.704437
15.99 321.640045
16.00 318.148682
16.01 321.051453
16.02 319.877991
16.03 320.94577
16.04 321.533936
16.05 328.239929
16.06 332.576965
16.07 334.384918
16.08 339.462006
16.09 340.829803
16.10 343.01532
16.11 340.940063
16.12 337.371582
16.13 335.623444
16.14 334.899628
16.15 340.190094
16.16 337.348724
16.17 334.751282
16.18 341.310547
16.19 337.04837
16.20 331.223053
16.21 331.658844
16.22 332.762543
16.23 330.984589
16.24 334.290283
16.25 337.627289
16.26 340.876648
16.27 342.026337
16.28 338.733734
16.29 332.476563
16.30 336.741577
16.31 342.66153
16.32 347.21991
16.33 350.611755
16.34 347.663971
16.35 344.806641
16.36 340.658173
16.37 333.665375
16.38 335.788788
16.39 343.144501
16.40 337.730316
16.41 327.973145
16.42 326.652252
16.43 329.71283
16.44 339.658661
16.45 340.488708
16.46 339.665924
16.47 337.940277
16.48 328.468567
16.49 331.838562
16.50 337.875
16.51 334.171234
16.52 334.32431
16.53 340.09552
16.54 347.449707
16.55 349.628448
16.56 344.468994
16.57 342.872681
16.58 342.950226
16.59 341.550659
16.60 343.557343
16.61 336.698944
16.62 329.893646
16.63 334.190765
16.64 333.999084
16.65 330.82782
16.66 337.379791
16.67 342.707428
16.68 342.383911
16.69 342.909363
16.70 346.39386
16.71 349.18042
16.72 346.171326
16.73 340.132416
16.74 342.928162
16.75 342.555756
16.76 348.091339
16.77 354.125488
16.78 355.178406
16.79 360.007904
16.80 365.152985
16.81 358.7341
16.82 345.135773
16.83 337.92865
16.84 334.259247
16.85 334.214722
16.86 344.510742
16.87 354.184143
16.88 349.280273
16.89 353.844482
16.90 364.016022
16.91 366.988434
16.92 366.128326
16.93 360.677338
16.94 354.783752
16.95 351.757751
16.96 348.295868
16.97 352.271637
16.98 361.703583
16.99 359.644073
17.00 354.358276
17.01 353.5755
17.02 354.983154
17.03 358.466614
17.04 360.370575
17.05 360.012665
17.06 364.907288
17.07 362.829712
17.08 357.118134
17.09 354.009949
17.10 351.589233
17.11 349.817657
17.12 347.556183
17.13 345.380493
17.14 348.185242
17.15 356.715668
17.16 359.147766
17.17 359.889771
17.18 364.918488
17.19 369.6409
17.20 376.926117
17.21 377.998413
17.22 366.457764
17.23 355.82663
17.24 356.705353
17.25 364.040466
17.26 367.005432
17.27 369.390442
17.28 366.193909
17.29 362.67804
17.30 365.731232
17.31 375.790802
17.32 374.03476
17.33 365.83902
17.34 365.39447
17.35 365.914124
17.36 362.219452
17.37 356.660919
17.38 355.598511
17.39 368.984192
17.40 378.762634
17.41 374.74292
17.42 369.417358
17.43 360.511566
17.44 360.794128
17.45 365.718842
17.46 363.426025
17.47 365.960602
17.48 371.826263
17.49 370.638062
17.50 371.02298
17.51 371.253448
17.52 366.110199
17.53 361.479828
17.54 365.109833
17.55 371.517303
17.56 369.731659
17.57 372.106689
17.58 375.790924
17.59 376.733215
17.60 375.129669
17.61 374.821442
17.62 378.794617
17.63 372.455475
17.64 362.070038
17.65 365.179596
17.66 376.87616
17.67 378.825409
17.68 375.858582
17.69 374.260864
17.70 373.31366
17.71 374.627716
17.72 374.449066
17.73 368.013275
17.74 371.987579
17.75 381.920074
17.76 381.855774
17.77 375.42746
17.78 367.484039
17.79 368.011108
17.80 374.971619
17.81 385.302673
17.82 391.701172
17.83 391.020447
17.84 392.50415
17.85 383.938446
17.86 375.893005
17.87 379.929199
17.88 385.860352
17.89 385.657928
17.90 380.594757
17.91 379.755341
17.92 388.075775
17.93 391.040558
17.94 390.177216
17.95 390.330688
17.96 389.956451
17.97 383.154541
17.98 375.929504
17.99 385.665161
18.00 396.24295
18.01 394.442139
18.02 396.108185
18.03 401.759613
18.04 395.744324
18.05 395.384491
18.06 391.011597
18.07 390.843567
18.08 393.696381
18.09 389.835449
18.10 385.783722
18.11 385.03894
18.12 390.273285
18.13 393.089478
18.14 392.651428
18.15 392.093842
18.16 397.827942
18.17 403.74765
18.18 400.371887
18.19 395.572784
18.20 397.468872
18.21 395.889038
18.22 391.995636
18.23 401.757965
18.24 408.440674
18.25 410.292694
18.26 414.6297
18.27 409.594086
18.28 411.470703
18.29 415.79184
18.30 412.472809
18.31 400.45108
18.32 394.44754
18.33 394.812927
18.34 398.353333
18.35 405.382629
18.36 408.334137
18.37 407.922699
18.38 409.636292
18.39 412.63562
18.40 413.325226
18.41 409.361023
18.42 401.816589
18.43 400.5802
18.44 403.992004
18.45 408.525482
18.46 408.051422
18.47 401.553558
18.48 405.009308
18.49 407.682251
18.50 406.177094
18.51 408.018921
18.52 408.216553
18.53 396.194427
18.54 393.209412
18.55 398.016022
18.56 406.326996
18.57 410.631348
18.58 403.74411
18.59 398.188263
18.60 403.99231
18.61 403.960815
18.62 404.290405
18.63 410.96225
18.64 416.693726
18.65 422.483612
18.66 422.550201
18.67 418.35144
18.68 417.138458
18.69 409.849426
18.70 408.297974
18.71 415.316101
18.72 423.174683
18.73 424.070862
18.74 416.576324
18.75 409.652039
18.76 408.007843
18.77 411.530304
18.78 405.29715
18.79 405.083771
18.80 417.691711
18.81 415.037781
18.82 409.904877
18.83 407.313904
18.84 411.752655
18.85 418.512939
18.86 417.200897
18.87 422.812134
18.88 427.565002
18.89 430.460785
18.90 437.943695
18.91 441.209869
18.92 433.033386
18.93 422.432159
18.94 426.291351
18.95 434.722443
18.96 434.934998
18.97 434.419067
18.98 433.521332
18.99 428.841217
19.00 425.173645
19.01 429.662292
19.02 429.610107
19.03 434.445862
19.04 442.362701
19.05 446.465027
19.06 450.920959
19.07 453.683533
19.08 449.487274
19.09 441.663818
19.10 439.662598
19.11 441.363861
19.12 443.804169
19.13 443.577271
19.14 436.224426
19.15 428.282379
19.16 432.255188
19.17 439.25174
19.18 434.388489
19.19 431.163086
19.20 433.416046
19.21 430.717987
19.22 427.875916
19.23 433.015961
19.24 436.524933
19.25 442.423798
19.26 450.187988
19.27 453.967285
19.28 454.785461
19.29 447.446167
19.30 437.992798
19.31 433.917664
19.32 439.933929
19.33 443.225586
19.34 440.931458
19.35 440.416473
19.36 441.511688
19.37 441.374268
19.38 448.265991
19.39 460.704468
19.40 462.874878
19.41 460.655457
19.42 461.428558
19.43 457.138062
19.44 451.004089
19.45 449.404236
19.46 445.1297
19.47 446.000671
19.48 451.738861
19.49 452.525482
19.50 450.486938
19.51 451.258392
19.52 460.84375
19.53 463.039612
19.54 459.373199
19.55 453.439819
19.56 447.839294
19.57 450.667633
19.58 461.797852
19.59 460.403778
19.60 452.68927
19.61 456.470581
19.62 455.344299
19.63 454.938263
19.64 462.25412
19.65 464.806091
19.66 460.981415
19.67 457.349365
19.68 453.367523
19.69 458.407715
19.70 462.847687
19.71 464.470856
19.72 467.884064
19.73 468.45993
19.74 466.195251
19.75 466.466064
19.76 470.311829
19.77 468.917389
19.78 468.367737
19.79 467.402344
19.80 465.449463
19.81 464.068787
19.82 470.327545
19.83 479.664429
19.84 477.976593
19.85 478.651611
19.86 481.105347
19.87 482.696991
19.88 483.031433
19.89 477.088623
19.90 470.986481
19.91 464.848785
19.92 472.290039
19.93 485.417419
19.94 489.697632
19.95 485.955566
19.96 482.85675
19.97 478.912415
19.98 473.517975
19.99 468.2034
20.00 470.778259
20.01 472.135437
20.02 470.343719
20.03 469.03421
20.04 466.834381
20.05 469.189423
20.06 474.304932
20.07 474.163055
20.08 471.010437
20.09 472.272888
20.10 474.22226
20.11 479.379272
20.12 482.941559
20.13 487.236816
20.14 493.436768
20.15 492.86087
20.16 491.520386
20.17 494.025391
20.18 497.7323
20.19 497.123505
20.20 491.656281
20.21 486.908997
20.22 486.155853
20.23 489.78186
20.24 491.723022
20.25 495.85376
20.26 495.254211
20.27 494.317627
20.28 496.978485
20.29 498.183624
20.30 496.644562
20.31 489.419342
20.32 489.928955
20.33 491.148682
20.34 492.86087
20.35 496.342102
20.36 496.774567
20.37 491.677917
20.38 492.58255
20.39 497.974884
20.40 494.922821
20.41 500.586395
20.42 504.421387
20.43 503.148376
20.44 504.63446
20.45 504.825012
20.46 502.403168
20.47 499.563019
20.48 503.101746
20.49 511.220184
20.50 508.931824
20.51 500.067261
20.52 501.745209
20.53 510.268463
20.54 510.322083
20.55 507.775177
20.56 508.949219
20.57 507.147552
20.58 507.263672
20.59 510.322113
20.60 515.877869
20.61 519.745361
20.62 514.840149
20.63 513.809814
20.64 510.849884
20.65 509.020081
20.66 506.302551
20.67 504.144592
20.68 511.342316
20.69 514.40448
20.70 516.086487
20.71 517.055786
20.72 518.507324
20.73 519.9328
20.74 519.067383
20.75 520.017822
20.76 523.994751
20.77 519.173035
20.78 515.95166
20.79 514.879211
20.80 516.408875
20.81 514.73584
20.82 512.817627
20.83 518.543091
20.84 523.17688
20.85 517.782593
20.86 519.934082
20.87 528.772278
20.88 533.029541
20.89 537.582397
20.90 537.059998
20.91 527.900085
20.92 520.804871
20.93 518.42627
20.94 517.918274
20.95 514.34552
20.96 514.010193
20.97 519.26886
20.98 516.970093
20.99 513.147217
21.00 518.356506
21.01 525.986755
21.02 525.017517
21.03 526.15918
21.04 533.590271
21.05 534.493408
21.06 526.912598
21.07 524.225403
21.08 522.250854
21.09 526.378662
21.10 530.44635
21.11 532.315857
21.12 532.334229
21.13 530.032166
21.14 530.102112
21.15 529.753052
21.16 530.5047
21.17 529.486084
21.18 526.151489
21.19 522.192139
21.20 530.586426
21.21 541.253235
21.22 539.927856
21.23 538.011108
21.24 533.843384
21.25 531.327271
21.26 536.441895
21.27 541.956177
21.28 539.059937
21.29 540.624756
21.30 539.014587
21.31 540.808167
21.32 544.440308
21.33 548.45636
21.34 550.308838
21.35 544.423828
21.36 544.358093
21.37 540.871033
21.38 541.943665
21.39 557.949829
21.40 557.840027
21.41 554.895264
21.42 550.180359
21.43 541.974304
21.44 541.040771
21.45 547.974792
21.46 550.526428
21.47 551.907532
21.48 554.536926
21.49 551.96283
21.50 544.01593
21.51 532.34906
21.52 534.959717
21.53 544.522888
21.54 551.304443
21.55 559.292542
21.56 559.521118
21.57 552.893738
21.58 550.528381
21.59 556.524719
21.60 552.764038
21.61 550.187866
21.62 549.788269
21.63 547.135376
21.64 547.213623
21.65 553.556274
21.66 548.259338
21.67 541.160522
21.68 546.30127
21.69 546.53772
21.70 540.46991
21.71 547.413147
21.72 549.056335
21.73 548.564209
21.74 551.422913
21.75 545.0448
21.76 544.146057
21.77 548.699341
21.78 546.420654
21.79 545.339294
21.80 545.596741
21.81 547.291687
21.82 552.858582
21.83 557.444275
21.84 560.219482
21.85 559.245972
21.86 564.779358
21.87 561.488892
21.88 558.03949
21.89 560.565125
21.90 561.789978
21.91 565.873535
21.92 571.016907
21.93 573.402649
21.94 570.819824
21.95 571.300659
21.96 570.31073
21.97 570.130432
21.98 569.720276
21.99 569.469421
22.00 564.587708
22.01 565.218994
22.02 574.105286
22.03 577.257629
22.04 567.107178
22.05 563.517517
22.06 570.523193
22.07 572.219727
22.08 564.335022
22.09 557.990601
22.10 562.188599
22.11 567.604675
22.12 568.619812
22.13 569.657959
22.14 567.12146
22.15 563.419006
22.16 565.571167
22.17 567.925537
22.18 574.950806
22.19 579.481873
22.20 575.18103
22.21 573.44928
22.22 567.157227
22.23 561.402283
22.24 562.475525
22.25 569.668274
22.26 587.008606
22.27 589.541138
22.28 585.083923
22.29 584.193359
22.30 583.167786
22.31 583.723572
22.32 591.683655
22.33 591.789795
22.34 585.014954
22.35 586.833801
22.36 583.745239
22.37 584.453552
22.38 590.843933
22.39 600.356201
22.40 608.706238
22.41 594.967712
22.42 576.336487
22.43 578.776733
22.44 582.402344
22.45 581.374207
22.46 580.153381
22.47 586.750916
22.48 589.078003
22.49 584.276794
22.50 591.770508
22.51 601.160767
22.52 603.230408
22.53 604.174622
22.54 599.835876
22.55 602.180725
22.56 608.640137
22.57 598.328247
22.58 588.121155
22.59 590.796997
22.60 593.255615
22.61 593.038269
22.62 602.540955
22.63 604.477539
22.64 596.982056
22.65 597.48584
22.66 595.240906
22.67 593.786255
22.68 593.176086
22.69 589.169312
22.70 593.155151
22.71 592.948608
22.72 590.56488
22.73 597.214783
22.74 597.975037
22.75 597.850403
22.76 601.477417
22.77 609.498718
22.78 612.059143
22.79 603.231201
22.80 602.296143
22.81 604.521912
22.82 608.751343
22.83 607.682373
22.84 602.150696
22.85 593.170349
22.86 591.323914
22.87 590.914856
22.88 591.384033
22.89 596.077454
22.90 596.034912
22.91 597.620239
22.92 601.202087
22.93 601.373474
22.94 608.982422
22.95 614.359009
22.96 615.909973
22.97 616.795898
22.98 611.127991
22.99 606.247681
23.00 601.308594
23.01 598.318665
23.02 595.644775
23.03 598.983398
23.04 609.05603
23.05 614.783508
23.06 610.830627
23.07 608.248169
23.08 613.452148
23.09 618.696899
23.10 625.516296
23.11 618.763245
23.12 615.447205
23.13 617.272217
23.14 621.273682
23.15 625.622681
23.16 625.136841
23.17 620.802368
23.18 616.128906
23.19 615.722046
23.20 616.962769
23.21 614.30249
23.22 613.241028
23.23 611.368958
23.24 615.459229
23.25 618.381165
23.26 622.871887
23.27 619.876709
23.28 613.41571
23.29 607.303833
23.30 607.535767
23.31 614.885437
23.32 621.22876
23.33 630.935852
23.34 633.760376
23.35 623.157471
23.36 615.442749
23.37 608.285767
23.38 611.199036
23.39 626.618286
23.40 633.37085
23.41 624.075867
23.42 622.878052
23.43 619.811279
23.44 613.359009
23.45 621.169922
23.46 625.673218
23.47 618.671875
23.48 614.622986
23.49 612.606445
23.50 609.224182
23.51 615.939941
23.52 619.037537
23.53 614.569885
23.54 616.161072
23.55 622.544922
23.56 614.293213
23.57 604.362732
23.58 610.915649
23.59 625.307617
23.60 630.716797
23.61 628.589294
23.62 628.373596
23.63 622.304688
23.64 621.618103
23.65 621.542175
23.66 621.800293
23.67 620.113831
23.68 616.324402
23.69 616.862366
23.70 617.528503
23.71 618.951721
23.72 634.328369
23.73 647.58551
23.74 644.710022
23.75 636.337769
23.76 635.598389
23.77 636.939209
23.78 634.195313
23.79 620.796082
23.80 618.629883
23.81 625.622925
23.82 624.02124
23.83 619.222351
23.84 630.541992
23.85 636.163269
23.86 633.854614
23.87 633.002258
23.88 635.094666
23.89 631.356995
23.90 620.872253
23.91 612.221863
23.92 614.854736
23.93 618.711792
23.94 619.705505
23.95 621.699829
23.96 627.454773
23.97 629.30072
23.98 625.475891
23.99 624.092957
24.00 618.559204
24.01 618.640259
24.02 621.708679
24.03 623.62915
24.04 632.917053
24.05 633.423584
24.06 631.706726
24.07 629.870972
24.08 627.652893
24.09 630.046509
24.10 639.663086
24.11 643.179749
24.12 639.753052
24.13 637.802246
24.14 637.893494
24.15 638.645569
24.16 632.348572
24.17 625.196899
24.18 621.322144
24.19 616.740845
24.20 617.055908
24.21 621.82428
24.22 620.692017
24.23 618.114746
24.24 621.114746
24.25 626.982117
24.26 635.595642
24.27 643.437378
24.28 643.556824
24.29 638.90564
24.30 638.786133
24.31 641.334961
24.32 639.570374
24.33 636.379456
24.34 634.443176
24.35 632.088623
24.36 637.239685
24.37 638.239197
24.38 638.192261
24.39 639.171509
24.40 642.090027
24.41 644.340393
24.42 637.882751
24.43 630.475891
24.44 631.872009
24.45 632.865051
24.46 631.225281
24.47 630.951782
24.48 631.056702
24.49 638.169922
24.50 636.454895
24.51 627.640869
24.52 630.495361
24.53 641.314331
24.54 641.754761
24.55 638.153198
24.56 643.28186
24.57 646.875854
24.58 645.10022
24.59 643.343506
24.60 644.741577
24.61 649.234253
24.62 649.612061
24.63 647.018982
24.64 641.202515
24.65 636.990723
24.66 640.250488
24.67 642.689636
24.68 644.899658
24.69 648.196411
24.70 645.375671
24.71 641.392029
24.72 644.590393
24.73 644.671509
24.74 639.142944
24.75 639.071838
24.76 634.759583
24.77 629.813599
24.78 630.906677
24.79 625.867981
24.80 618.619202
24.81 620.08667
24.82 620.798706
24.83 625.458801
24.84 633.284973
24.85 636.586121
24.86 641.591187
24.87 648.218445
24.88 650.51355
24.89 643.605774
24.90 630.38385
24.91 626.374695
24.92 630.915283
24.93 642.162048
24.94 649.263855
24.95 652.605652
24.96 644.886719
24.97 636.511292
24.98 640.674683
24.99 637.290649
25.00 628.605103
25.01 629.686401
25.02 634.496277
25.03 634.039734
25.04 628.70636
25.05 628.251892
25.06 632.819031
25.07 636.290771
25.08 632.987976
25.09 634.096008
25.10 631.675781
25.11 627.521973
25.12 636.402527
25.13 640.957031
25.14 643.518555
25.15 645.801941
25.16 639.335571
25.17 636.810913
25.18 640.250916
25.19 644.50885
25.20 655.119812
25.21 660.540222
25.22 657.081299
25.23 651.188293
25.24 644.233887
25.25 642.833557
25.26 652.654602
25.27 661.294067
25.28 663.055603
25.29 658.577026
25.30 657.564026
25.31 653.242065
25.32 644.435425
25.33 645.550842
25.34 645.981934
25.35 649.037048
25.36 648.494812
25.37 655.031799
25.38 654.999634
25.39 653.730347
25.40 647.854675
25.41 644.825989
25.42 650.109863
25.43 645.897705
25.44 642.514893
25.45 639.602661
25.46 637.295654
25.47 639.369385
25.48 642.904053
25.49 643.259399
25.50 638.310364
25.51 634.738403
25.52 640.301636
25.53 652.844666
25.54 657.009094
25.55 647.499695
25.56 638.717041
25.57 643.645325
25.58 653.488953
25.59 656.761536
25.60 646.316833
25.61 641.644836
25.62 641.370972
25.63 641.23877
25.64 638.953979
25.65 644.138367
25.66 656.597961
25.67 661.596802
25.68 657.348328
25.69 653.042969
25.70 641.760376
25.71 631.585449
25.72 630.955444
25.73 630.223938
25.74 630.908386
25.75 628.383301
25.76 626.694458
25.77 634.333435
25.78 644.572937
25.79 648.935669
25.80 649.388489
25.81 645.166016
25.82 645.463257
25.83 641.421631
25.84 642.057739
25.85 640.138123
25.86 638.053467
25.87 630.928833
25.88 633.613159
25.89 640.980835
25.90 646.321289
25.91 642.778625
25.92 648.47345
25.93 646.465454
25.94 639.374634
25.95 643.85614
25.96 638.820862
25.97 637.631653
25.98 638.45166
25.99 629.043213
26.00 631.736023
26.01 637.265015
26.02 640.530396
26.03 647.963623
26.04 647.184082
26.05 631.225037
26.06 625.306458
26.07 631.429688
26.08 638.496704
26.09 645.818848
26.10 637.352966
26.11 635.571716
26.12 644.679016
26.13 644.159973
26.14 642.872375
26.15 642.399536
26.16 643.113403
26.17 641.307251
26.18 638.914307
26.19 637.692078
26.20 645.808044
26.21 648.532654
26.22 647.367004
26.23 650.080688
26.24 648.75116
26.25 640.977356
26.26 642.075806
26.27 637.254028
26.28 635.084839
26.29 639.572327
26.30 638.179871
26.31 633.878235
26.32 635.289795
26.33 633.538025
26.34 635.414978
26.35 634.014954
26.36 640.415344
26.37 643.54541
26.38 643.677795
26.39 643.733582
26.40 638.113159
26.41 630.055664
26.42 626.810303
26.43 630.955994
26.44 639.216431
26.45 641.011719
26.46 635.924133
26.47 639.730652
26.48 634.993103
26.49 630.874878
26.50 634.801514
26.51 646.467102
26.52 653.164063
26.53 649.044861
26.54 649.379822
26.55 646.643066
26.56 644.835999
26.57 636.924622
26.58 629.940002
26.59 635.982422
26.60 639.799805
26.61 636.31897
26.62 632.21106
26.63 629.826904
26.64 632.636536
26.65 644.071899
26.66 647.942749
26.67 648.441467
26.68 643.546082
26.69 636.118286
26.70 633.749634
26.71 627.162354
26.72 620.787842
26.73 625.016541
26.74 630.268494
26.75 631.275208
26.76 635.474792
26.77 631.822449
26.78 627.674927
26.79 634.950562
26.80 636.957642
26.81 633.071411
26.82 631.115845
26.83 629.153809
26.84 636.215576
26.85 644.026794
26.86 642.562805
26.87 645.535583
26.88 647.306641
26.89 635.330139
26.90 629.272949
26.91 632.688965
26.92 637.499329
26.93 638.655701
26.94 636.180725
26.95 629.976807
26.96 629.315125
26.97 634.53363
26.98 635.890015
26.99 635.200928
27.00 633.285461
27.01 633.340698
27.02 632.38562
27.03 630.900574
27.04 627.803894
27.05 625.889282
27.06 624.859375
27.07 630.398743
27.08 638.902039
27.09 643.599426
27.10 643.881836
27.11 639.98584
27.12 644.715393
27.13 644.541016
27.14 636.857666
27.15 633.541687
27.16 625.453735
27.17 621.00592
27.18 622.663757
27.19 624.142944
27.20 622.646179
27.21 632.416992
27.22 634.774414
27.23 628.488464
27.24 623.150208
27.25 621.762207
27.26 625.921875
27.27 627.131836
27.28 628.68457
27.29 630.693542
27.30 635.59375
27.31 639.946838
27.32 648.604919
27.33 649.287476
27.34 637.699524
27.35 634.75116
27.36 636.511719
27.37 637.257263
27.38 634.127258
27.39 628.384094
27.40 624.643433
27.41 625.575928
27.42 631.257935
27.43 628.103516
27.44 636.232971
27.45 632.570618
27.46 627.861938
27.47 633.454407
27.48 625.310852
27.49 627.839966
27.50 635.599976
27.51 641.226074
27.52 647.579041
27.53 646.444092
27.54 640.595764
27.55 638.968689
27.56 640.304749
27.57 636.556213
27.58 639.190247
27.59 640.603516
27.60 634.667053
27.61 631.000244
27.62 635.176025
27.63 632.028625
27.64 626.6698
27.65 629.809021
27.66 633.19574
27.67 632.399231
27.68 629.759094
27.69 631.450256
27.70 632.427979
27.71 626.732727
27.72 632.969849
27.73 640.927856
27.74 637.559692
27.75 643.767395
27.76 644.63324
27.77 635.956055
27.78 632.226196
27.79 640.113098
27.80 645.983032
27.81 646.21875
27.82 642.677795
27.83 640.545166
27.84 642.859009
27.85 640.386719
27.86 638.358948
27.87 641.930725
27.88 645.57959
27.89 645.902466
27.90 643.221252
27.91 639.583191
27.92 643.352356
27.93 643.640381
27.94 637.959045
27.95 633.028137
27.96 637.852661
27.97 637.600647
27.98 643.01123
27.99 652.55957
28.00 648.229858
28.01 640.400208
28.02 633.194946
28.03 627.846191
28.04 629.449951
28.05 637.800049
28.06 642.034729
28.07 636.851196
28.08 639.666077
28.09 637.421082
28.10 638.1427
28.11 641.975342
28.12 642.483643
28.13 641.68988
28.14 638.835388
28.15 639.015076
28.16 637.213196
28.17 633.90332
28.18 645.049683
28.19 654.516357
28.20 654.841858
28.21 645.414978
28.22 639.151001
28.23 636.422729
28.24 637.744934
28.25 642.197937
28.26 645.103149
28.27 641.170044
28.28 638.390808
28.29 643.941345
28.30 642.725342
28.31 634.339844
28.32 639.416504
28.33 644.578796
28.34 643.817871
28.35 639.235779
28.36 638.731018
28.37 641.095276
28.38 639.885498
28.39 640.076965
28.40 639.89679
28.41 643.357483
28.42 649.050171
28.43 651.244873
28.44 653.986877
28.45 653.996033
28.46 648.664795
28.47 642.920898
28.48 645.218994
28.49 649.099915
28.50 648.250671
28.51 642.319885
28.52 636.341919
28.53 638.616333
28.54 639.051697
28.55 637.651489
28.56 638.840332
28.57 644.32074
28.58 649.396301
28.59 659.667847
28.60 665.246887
28.61 660.552307
28.62 661.212097
28.63 663.394836
28.64 658.203064
28.65 657.730591
28.66 666.696228
28.67 672.354309
28.68 671.817261
28.69 670.453186
28.70 675.42865
28.71 683.845459
28.72 686.498047
28.73 690.009277
28.74 683.8479
28.75 680.916931
28.76 691.948425
28.77 702.213623
28.78 708.186218
28.79 710.787048
28.80 720.883362
28.81 725.65625
28.82 724.706726
28.83 727.510376
28.84 734.785767
28.85 742.817627
28.86 747.634766
28.87 753.985107
28.88 762.920776
28.89 772.507202
28.90 786.576294
28.91 815.57373
28.92 834.837219
28.93 843.798218
28.94 851.261414
28.95 855.90271
28.96 874.382263
28.97 885.539307
28.98 902.035645
28.99 917.146851
29.00 921.625
29.01 929.576355
29.02 950.102234
29.03 966.244934
29.04 982.324646
29.05 994.124512
29.06 1003.775879
29.07 1011.068787
29.08 1016.587402
29.09 1045.988159
29.10 1060.288452
29.11 1066.654663
29.12 1067.594238
29.13 1070.411865
29.14 1072.116333
29.15 1075.405029
29.16 1075.825684
29.17 1080.418579
29.18 1074.246704
29.19 1054.619873
29.20 1041.112915
29.21 1041.089111
29.22 1031.266846
29.23 1023.525635
29.24 1020.80365
29.25 1015.702087
29.26 1006.168945
29.27 994.184143
29.28 986.777344
29.29 971.910767
29.30 955.90448
29.31 940.687134
29.32 923.408386
29.33 906.292664
29.34 893.087402
29.35 883.359985
29.36 866.125732
29.37 853.139709
29.38 844.431274
29.39 842.004883
29.40 825.776733
29.41 807.33313
29.42 801.594604
29.43 786.923157
29.44 773.481323
29.45 764.209045
29.46 759.092773
29.47 757.067383
29.48 752.614136
29.49 750.047241
29.50 742.90564
29.51 732.596558
29.52 719.461792
29.53 707.877869
29.54 699.442932
29.55 696.61377
29.56 700.401489
29.57 701.505615
29.58 693.262756
29.59 684.928101
29.60 683.483887
29.61 684.730103
29.62 680.116821
29.63 678.096436
29.64 671.68158
29.65 655.979797
29.66 640.812927
29.67 647.221313
29.68 657.693115
29.69 657.882141
29.70 658.827271
29.71 661.671448
29.72 659.701599
29.73 650.690186
29.74 641.564331
29.75 637.248535
29.76 638.105652
29.77 643.73822
29.78 649.248169
29.79 647.436157
29.80 643.272583
29.81 645.646912
29.82 642.695862
29.83 634.979919
29.84 628.406311
29.85 627.773804
29.86 624.745972
29.87 628.069153
29.88 627.904602
29.89 626.557922
29.90 629.516479
29.91 622.584351
29.92 616.67926
29.93 616.544739
29.94 609.043579
29.95 609.947327
29.96 613.038086
29.97 616.81781
29.98 620.196716
29.99 618.931152
30.00 623.181458
30.01 627.429382
30.02 620.114075
30.03 608.900879
30.04 601.106384
30.05 609.883179
30.06 621.608032
30.07 620.246887
30.08 615.665161
30.09 617.725342
30.10 616.439026
30.11 608.367126
30.12 605.04126
30.13 610.293457
30.14 609.293884
30.15 602.721313
30.16 600.20105
30.17 606.000854
30.18 610.991333
30.19 607.064575
30.20 598.527771
30.21 594.258362
30.22 595.710205
30.23 600.530334
30.24 602.900085
30.25 603.916016
30.26 605.026611
30.27 601.787842
30.28 596.084656
30.29 607.942871
30.30 615.877197
30.31 607.644653
30.32 601.121521
30.33 601.991943
30.34 602.260193
30.35 601.883789
30.36 604.984375
30.37 602.9729
30.38 597.398926
30.39 591.762939
30.40 589.414063
30.41 592.702332
30.42 595.874573
30.43 597.789978
30.44 592.110962
30.45 592.362549
30.46 600.509644
30.47 607.637207
30.48 605.660095
30.49 597.52417
30.50 587.142273
30.51 580.418762
30.52 581.622375
30.53 585.875732
30.54 591.484375
30.55 596.520874
30.56 599.839172
30.57 606.104248
30.58 607.5755
30.59 597.702515
30.60 593.876465
30.61 594.01825
30.62 595.19812
30.63 590.4151
30.64 590.03064
30.65 591.568542
30.66 584.679565
30.67 579.012573
30.68 578.929871
30.69 585.134583
30.70 595.774109
30.71 595.630493
30.72 591.866272
30.73 585.313171
30.74 584.003662
30.75 581.412109
30.76 579.657593
30.77 578.151978
30.78 575.476257
30.79 574.252563
30.80 576.17804
30.81 583.335266
30.82 589.385803
30.83 586.392944
30.84 579.253906
30.85 581.475281
30.86 583.680298
30.87 587.127258
30.88 590.915344
30.89 593.88208
30.90 591.599304
30.91 587.168335
30.92 584.356445
30.93 584.031677
30.94 582.495117
30.95 584.545593
30.96 589.085815
30.97 584.642639
30.98 580.906433
30.99 575.366821
31.00 576.468323
31.01 584.46283
31.02 587.010559
31.03 582.635193
31.04 583.860046
31.05 597.126099
31.06 597.912903
31.07 588.271912
31.08 580.736877
31.09 576.834229
31.10 575.53125
31.11 572.409668
31.12 572.142639
31.13 569.195374
31.14 576.074341
31.15 588.445679
31.16 587.708862
31.17 581.917053
31.18 574.490234
31.19 569.84137
31.20 569.170532
31.21 564.08075
31.22 565.396973
31.23 565.692383
31.24 570.679016
31.25 568.306152
31.26 560.596375
31.27 560.422852
31.28 566.165466
31.29 568.796814
31.30 568.831848
31.31 576.32489
31.32 575.655579
31.33 573.204834
31.34 572.633728
31.35 571.539124
31.36 569.938721
31.37 571.51001
31.38 568.265686
31.39 562.256287
31.40 557.088806
31.41 560.886841
31.42 566.524536
31.43 565.098877
31.44 567.097595
31.45 569.7547
31.46 572.194824
31.47 571.757935
31.48 563.58429
31.49 560.993225
31.50 564.705139
31.51 561.899902
31.52 559.701965
31.53 568.711182
31.54 564.368591
31.55 571.30072
31.56 581.245972
31.57 581.381714
31.58 574.041443
31.59 566.532471
31.60 563.375122
31.61 561.7323
31.62 559.36377
31.63 557.056152
31.64 557.57196
31.65 553.258606
31.66 551.882141
31.67 562.127625
31.68 564.272156
31.69 563.374817
31.70 563.028992
31.71 563.22467
31.72 563.133057
31.73 561.384277
31.74 563.561462
31.75 566.002258
31.76 566.240479
31.77 560.754761
31.78 563.285217
31.79 569.597412
31.80 575.039673
31.81 578.22522
31.82 571.853333
31.83 561.866333
31.84 554.449646
31.85 553.293701
31.86 551.366333
31.87 554.212524
31.88 552.854065
31.89 555.293762
31.90 556.13092
31.91 556.322876
31.92 561.37439
31.93 563.989563
31.94 567.405457
31.95 565.669739
31.96 564.390198
31.97 562.450073
31.98 563.496094
31.99 574.31958
32.00 579.989258
32.01 570.881287
32.02 568.893738
32.03 573.297424
32.04 565.884583
32.05 564.134705
32.06 574.540894
32.07 572.082703
32.08 568.53241
32.09 571.192627
32.10 574.859253
32.11 576.831116
32.12 574.456604
32.13 568.695068
32.14 564.680603
32.15 562.932251
32.16 568.922424
32.17 571.083557
32.18 564.737854
32.19 561.101257
32.20 571.801514
32.21 579.238525
32.22 574.29187
32.23 574.651794
32.24 574.539795
32.25 579.810425
32.26 585.161377
32.27 586.95166
32.28 586.920227
32.29 586.735107
32.30 589.903137
32.31 595.125732
32.32 593.232849
32.33 592.121399
32.34 595.422791
32.35 597.505188
32.36 596.168274
32.37 599.93927
32.38 603.110291
32.39 601.226807
32.40 599.481995
32.41 605.218262
32.42 600.767517
32.43 596.693176
32.44 603.821045
32.45 609.637634
32.46 613.216003
32.47 608.179932
32.48 612.035461
32.49 616.978333
32.50 614.832825
32.51 610.612305
32.52 607.483948
32.53 607.940247
32.54 616.694946
32.55 624.406677
32.56 625.581543
32.57 623.833679
32.58 620.611023
32.59 626.909851
32.60 625.81073
32.61 614.488892
32.62 618.866577
32.63 626.100525
32.64 625.19928
32.65 618.35791
32.66 616.480957
32.67 622.118042
32.68 626.973145
32.69 626.650452
32.70 625.003967
32.71 630.710083
32.72 630.533325
32.73 627.644165
32.74 629.731934
32.75 632.198853
32.76 629.767456
32.77 616.149109
32.78 607.712402
32.79 609.759766
32.80 607.97644
32.81 608.855591
32.82 615.310608
32.83 620.479553
32.84 613.252563
32.85 605.007629
32.86 604.246399
32.87 605.358948
32.88 603.947144
32.89 604.416443
32.90 605.951172
32.91 596.536499
32.92 582.317993
32.93 578.358093
32.94 576.395996
32.95 580.693298
32.96 586.60376
32.97 584.242554
32.98 583.822571
32.99 583.401917
33.00 580.114441
33.01 576.822632
33.02 573.71875
33.03 566.797668
33.04 568.958679
33.05 569.896301
33.06 567.192932
33.07 566.138672
33.08 562.976624
33.09 561.425415
33.10 560.642212
33.11 563.74762
33.12 557.782288
33.13 553.685974
33.14 553.815125
33.15 552.21698
33.16 547.104004
33.17 542.030151
33.18 546.360596
33.19 545.517761
33.20 542.073059
33.21 541.936829
33.22 549.740295
33.23 551.577148
33.24 549.233643
33.25 544.742493
33.26 542.200378
33.27 542.756531
33.28 543.657532
33.29 541.843628
33.30 537.781494
33.31 531.713684
33.32 531.704285
33.33 531.074707
33.34 523.611145
33.35 521.522339
33.36 518.117004
33.37 520.69519
33.38 523.507507
33.39 522.71283
33.40 525.998962
33.41 524.125427
33.42 514.367615
33.43 510.25882
33.44 507.754852
33.45 507.738739
33.46 512.737854
33.47 521.369812
33.48 522.886353
33.49 520.081238
33.50 520.460449
33.51 513.987305
33.52 513.671021
33.53 517.424133
33.54 516.510193
33.55 517.169067
33.56 515.895874
33.57 513.574585
33.58 514.156982
33.59 512.994385
33.60 511.633911
33.61 513.847107
33.62 518.375305
33.63 518.11322
33.64 518.882813
33.65 516.934814
33.66 512.941589
33.67 508.990387
33.68 504.795105
33.69 498.355957
33.70 499.780273
33.71 502.564941
33.72 502.694427
33.73 499.812225
33.74 498.463379
33.75 497.628204
33.76 502.102264
33.77 502.264069
33.78 499.594238
33.79 502.064056
33.80 506.603241
33.81 504.983917
33.82 504.157043
33.83 507.88092
33.84 499.910431
33.85 490.487244
33.86 494.263062
33.87 497.99295
33.88 498.781097
33.89 502.443451
33.90 498.18161
33.91 492.582245
33.92 486.388184
33.93 482.100128
33.94 479.712311
33.95 483.079102
33.96 491.682495
33.97 491.277435
33.98 490.893707
33.99 490.824036
34.00 485.910461
34.01 491.62323
34.02 492.354584
34.03 489.183319
34.04 486.006073
34.05 484.679535
34.06 486.675995
34.07 488.22171
34.08 492.151398
34.09 497.314331
34.10 492.648682
34.11 483.858429
34.12 482.397278
34.13 481.772095
34.14 481.573608
34.15 485.294281
34.16 486.098419
34.17 483.811798
34.18 486.446289
34.19 487.166779
34.20 485.787781
34.21 485.49585
34.22 482.831024
34.23 483.847504
34.24 488.347931
34.25 486.706604
34.26 487.758057
34.27 489.864685
34.28 485.099457
34.29 483.478668
34.30 479.861084
34.31 478.354645
34.32 478.011902
34.33 477.434845
34.34 478.280151
34.35 478.001404
34.36 479.539093
34.37 469.534393
34.38 465.768463
34.39 468.263062
34.40 470.891937
34.41 473.137482
34.42 470.930206
34.43 472.666779
34.44 474.9245
34.45 474.690979
34.46 475.777283
34.47 476.433258
34.48 466.61377
34.49 459.77652
34.50 463.851044
34.51 472.447906
34.52 477.885376
34.53 474.980316
34.54 469.981506
34.55 463.893372
34.56 463.609955
34.57 469.945404
34.58 468.199493
34.59 462.295532
34.60 463.944794
34.61 463.472504
34.62 461.280823
34.63 467.092072
34.64 468.1409
34.65 465.223206
34.66 466.935913
34.67 467.338867
34.68 467.096497
34.69 467.355408
34.70 469.201874
34.71 466.042236
34.72 458.458099
34.73 459.727814
34.74 464.988373
34.75 465.826782
34.76 465.637451
34.77 468.690277
34.78 464.093262
34.79 459.084351
34.80 456.596252
34.81 452.407776
34.82 451.759644
34.83 459.186371
34.84 464.614075
34.85 459.47641
34.86 459.991058
34.87 469.429413
34.88 473.233673
34.89 469.700256
34.90 462.171875
34.91 457.209412
34.92 458.596863
34.93 462.451355
34.94 462.20462
34.95 458.681244
34.96 454.737518
34.97 455.57489
34.98 452.828857
34.99 452.964539
35.00 456.993744
35.01 454.713928
35.02 449.137054
35.03 446.783936
35.04 449.632141
35.05 449.865631
35.06 450.113831
35.07 452.508484
35.08 459.254486
35.09 460.517242
35.10 457.474792
35.11 450.192261
35.12 448.730286
35.13 449.319183
35.14 447.741241
35.15 448.008118
35.16 453.888367
35.17 456.869659
35.18 454.611725
35.19 453.795868
35.20 448.440643
35.21 440.751801
35.22 437.643524
35.23 436.647736
35.24 443.055328
35.25 450.511383
35.26 448.883179
35.27 443.245544
35.28 438.898438
35.29 436.06366
35.30 436.447174
35.31 438.471558
35.32 443.509308
35.33 445.547546
35.34 438.423676
35.35 433.200592
35.36 435.884644
35.37 433.449707
35.38 432.546997
35.39 433.121429
35.40 435.761261
35.41 443.730835
35.42 452.058289
35.43 448.398102
35.44 445.302124
35.45 444.909729
35.46 443.637024
35.47 442.114197
35.48 443.528473
35.49 438.513397
35.50 433.201263
35.51 437.42215
35.52 439.170197
35.53 438.047943
35.54 439.396301
35.55 441.952393
35.56 446.554413
35.57 446.837341
35.58 442.65097
35.59 434.177612
35.60 427.793671
35.61 426.056122
35.62 428.156036
35.63 433.770477
35.64 438.385712
35.65 438.891907
35.66 439.965149
35.67 437.889252
35.68 430.960846
35.69 429.431152
35.70 428.34436
35.71 430.824707
35.72 436.800446
35.73 436.233337
35.74 426.877045
35.75 423.744873
35.76 430.342987
35.77 434.944153
35.78 438.019196
35.79 436.676422
35.80 434.511139
35.81 434.461334
35.82 432.630127
35.83 427.303894
35.84 422.799469
35.85 420.484741
35.86 425.681641
35.87 427.220886
35.88 430.756622
35.89 432.376129
35.90 430.302338
35.91 431.027252
35.92 426.206879
35.93 426.968048
35.94 429.112549
35.95 427.98999
35.96 426.893066
35.97 423.865906
35.98 421.50647
35.99 420.35257
36.00 417.31073
36.01 419.810242
36.02 422.136261
36.03 418.683868
36.04 420.499268
36.05 421.177338
36.06 419.957947
36.07 420.676605
36.08 417.285004
36.09 410.908539
36.10 415.03833
36.11 422.088043
36.12 424.389954
36.13 423.796967
36.14 419.673004
36.15 415.826202
36.16 415.168335
36.17 417.597595
36.18 424.305206
36.19 423.71228
36.20 421.994965
36.21 420.452087
36.22 409.756195
36.23 406.781982
36.24 410.36792
36.25 410.624603
36.26 413.080109
36.27 414.109985
36.28 416.088135
36.29 415.151581
36.30 414.070007
36.31 410.163757
36.32 407.214386
36.33 410.949371
36.34 416.40567
36.35 417.085022
36.36 414.149323
36.37 410.904144
36.38 400.775848
36.39 392.096008
36.40 393.583679
36.41 396.858826
36.42 400.510071
36.43 402.396667
36.44 407.330078
36.45 410.209747
36.46 411.994904
36.47 416.963684
36.48 415.798615
36.49 408.012207
36.50 405.715424
36.51 403.032806
36.52 399.429504
36.53 399.971069
36.54 402.03418
36.55 402.850616
36.56 398.803467
36.57 395.989502
36.58 400.077148
36.59 404.346802
36.60 404.642059
36.61 403.906677
36.62 403.794952
36.63 399.456848
36.64 397.539093
36.65 397.019562
36.66 401.131012
36.67 404.576813
36.68 402.787872
36.69 403.172424
36.70 409.449463
36.71 409.504303
36.72 411.201233
36.73 402.916626
36.74 396.657501
36.75 395.0849
36.76 391.309753
36.77 392.650055
36.78 394.971008
36.79 386.612732
36.80 378.310822
36.81 387.023376
36.82 391.756134
36.83 390.852386
36.84 392.263855
36.85 389.608551
36.86 392.713745
36.87 388.787354
36.88 385.968079
36.89 388.5625
36.90 386.001129
36.91 386.31781
36.92 388.189606
36.93 392.544922
36.94 398.251648
36.95 396.493896
36.96 389.991333
36.97 389.275269
36.98 388.10614
36.99 386.127563
37.00 387.328278
37.01 386.32785
37.02 384.156403
37.03 385.670502
37.04 387.76178
37.05 393.259308
37.06 393.613892
37.07 390.418304
37.08 391.485138
37.09 387.754486
37.10 384.250275
37.11 381.322388
37.12 378.019012
37.13 376.01358
37.14 377.831024
37.15 379.005341
37.16 379.015625
37.17 376.804291
37.18 376.327271
37.19 380.172791
37.20 381.452362
37.21 383.782745
37.22 387.271637
37.23 390.901337
37.24 390.856628
37.25 388.737152
37.26 385.938599
37.27 383.431885
37.28 378.324677
37.29 380.181274
37.30 373.940125
37.31 373.91568
37.32 378.201355
37.33 380.798218
37.34 383.457092
37.35 382.490417
37.36 379.495361
37.37 377.148254
37.38 379.494293
37.39 380.949615
37.40 377.706085
37.41 371.130249
37.42 369.832458
37.43 374.296906
37.44 373.08255
37.45 370.292847
37.46 375.601196
37.47 381.939667
37.48 379.977936
37.49 387.668304
37.50 388.731964
37.51 378.535339
37.52 377.120544
37.53 379.357452
37.54 376.264801
37.55 377.482666
37.56 379.918304
37.57 383.708282
37.58 382.230011
37.59 373.866333
37.60 372.783661
37.61 373.554016
37.62 370.915649
37.63 369.772369
37.64 373.348206
37.65 381.139526
37.66 379.388184
37.67 375.365601
37.68 377.786682
37.69 373.404236
37.70 370.945892
37.71 371.301788
37.72 375.245392
37.73 372.204041
37.74 364.861084
37.75 367.999908
37.76 370.837494
37.77 367.049988
37.78 365.509674
37.79 370.296844
37.80 371.80719
37.81 371.027222
37.82 365.366852
37.83 366.433563
37.84 373.40918
37.85 371.744537
37.86 371.673065
37.87 375.286896
37.88 375.515289
37.89 370.118439
37.90 368.658417
37.91 375.48819
37.92 377.891998
37.93 377.45932
37.94 377.477386
37.95 372.787384
37.96 366.295227
37.97 360.606567
37.98 361.47345
37.99 368.008392
38.00 370.493561
38.01 371.766907
38.02 370.506897
38.03 368.054993
38.04 371.213867
38.05 370.538269
38.06 368.439484
38.07 367.819061
38.08 363.277252
38.09 368.347534
38.10 369.996277
38.11 365.488373
38.12 365.113739
38.13 369.009949
38.14 369.091309
38.15 367.927002
38.16 366.947754
38.17 365.143524
38.18 367.668701
38.19 374.203186
38.20 377.788055
38.21 372.318085
38.22 372.23111
38.23 374.28421
38.24 373.754333
38.25 367.822357
38.26 365.028168
38.27 366.331299
38.28 365.965942
38.29 362.814209
38.30 364.251709
38.31 366.81308
38.32 369.265564
38.33 368.532227
38.34 367.274689
38.35 370.099579
38.36 373.148499
38.37 367.576355
38.38 364.792328
38.39 370.074463
38.40 370.266266
38.41 373.909363
38.42 371.225494
38.43 370.738098
38.44 372.065552
38.45 368.467255
38.46 369.216095
38.47 378.486298
38.48 382.501862
38.49 382.872406
38.50 381.199921
38.51 375.511597
38.52 370.133362
38.53 366.135712
38.54 369.761108
38.55 377.651642
38.56 377.622742
38.57 375.477875
38.58 374.950836
38.59 378.481384
38.60 380.151855
38.61 376.076904
38.62 370.55838
38.63 365.54425
38.64 362.128601
38.65 365.929047
38.66 371.203796
38.67 373.445465
38.68 374.903503
38.69 371.517609
38.70 366.56958
38.71 359.659027
38.72 360.084167
38.73 360.756775
38.74 358.213501
38.75 358.772797
38.76 360.6008
38.77 360.874573
38.78 359.8815
38.79 359.788879
38.80 363.911377
38.81 366.162231
38.82 364.526367
38.83 360.480469
38.84 354.208252
38.85 353.613525
38.86 358.821991
38.87 356.559113
38.88 351.649994
38.89 353.63678
38.90 357.39035
38.91 361.351685
38.92 367.578217
38.93 364.700684
38.94 357.666016
38.95 355.052795
38.96 351.6203
38.97 346.542389
38.98 351.563202
38.99 361.591217
39.00 360.725891
39.01 351.226288
39.02 347.951447
39.03 350.068359
39.04 351.020508
39.05 356.854584
39.06 358.533875
39.07 353.52655
39.08 355.226959
39.09 358.830078
39.10 361.733063
39.11 365.455353
39.12 360.62439
39.13 352.342468
39.14 351.130249
39.15 351.416595
39.16 348.84549
39.17 350.506531
39.18 355.819611
39.19 359.62912
39.20 359.679749
39.21 353.959045
39.22 352.070404
39.23 353.606049
39.24 353.485168
39.25 357.11673
39.26 356.665131
39.27 355.798157
39.28 354.81424
39.29 354.834137
39.30 351.099579
39.31 350.506927
39.32 352.962738
39.33 349.44519
39.34 348.111389
39.35 349.649139
39.36 354.028503
39.37 354.217468
39.38 353.303284
39.39 355.623657
39.40 348.766296
39.41 344.595154
39.42 343.117645
39.43 347.910065
39.44 359.085938
39.45 358.003021
39.46 349.17157
39.47 350.31073
39.48 355.244629
39.49 352.506775
39.50 350.420563
39.51 349.870697
39.52 347.603821
39.53 344.525055
39.54 348.345215
39.55 351.539246
39.56 347.911377
39.57 353.859283
39.58 360.773773
39.59 359.592285
39.60 355.196899
39.61 350.410797
39.62 347.809906
39.63 348.980469
39.64 348.678223
39.65 348.663055
39.66 351.984833
39.67 350.040131
39.68 349.802246
39.69 351.965332
39.70 350.68045
39.71 352.535431
39.72 353.116364
39.73 348.499725
39.74 344.011475
39.75 341.400085
39.76 340.919678
39.77 345.494873
39.78 352.369781
39.79 349.768097
39.80 345.441345
39.81 345.687592
39.82 341.091125
39.83 338.202667
39.84 344.155731
39.85 346.546356
39.86 347.566193
39.87 344.985046
39.88 344.00061
39.89 345.857178
39.90 344.5495
39.91 339.927734
39.92 343.122559
39.93 349.384735
39.94 352.571381
39.95 351.200073
39.96 345.878235
39.97 346.234375
39.98 347.784576
39.99 344.67041
40.00 341.028809
40.01 340.37738
40.02 344.385437
40.03 346.967529
40.04 346.691101
40.05 346.644226
40.06 346.505341
40.07 341.216522
40.08 342.078217
40.09 342.924072
40.10 344.654449
40.11 350.479218
40.12 342.773865
40.13 333.237671
40.14 337.848206
40.15 344.903717
40.16 348.605408
40.17 345.877869
40.18 341.238037
40.19 347.735168
40.20 353.050903
40.21 353.408325
40.22 353.621307
40.23 352.351379
40.24 352.145966
40.25 351.692932
40.26 350.283142
40.27 350.491547
40.28 354.316895
40.29 356.667694
40.30 352.103485
40.31 344.317352
40.32 343.910889
40.33 349.694031
40.34 352.787842
40.35 349.081268
40.36 341.074554
40.37 339.502563
40.38 341.917114
40.39 338.995544
40.40 334.714478
40.41 338.499725
40.42 338.180939
40.43 336.458557
40.44 337.784363
40.45 341.160706
40.46 343.10437
40.47 344.180664
40.48 349.814331
40.49 351.904755
40.50 347.609619
40.51 344.962708
40.52 343.812927
40.53 343.511963
40.54 340.69812
40.55 340.210083
40.56 340.581451
40.57 345.092529
40.58 344.957916
40.59 344.295044
40.60 346.343445
40.61 346.686768
40.62 345.708221
40.63 349.147827
40.64 355.540283
40.65 350.434998
40.66 345.049805
40.67 345.943878
40.68 340.576721
40.69 336.542419
40.70 337.865631
40.71 337.155396
40.72 336.306213
40.73 336.422058
40.74 337.32132
40.75 340.506622
40.76 347.251404
40.77 349.184784
40.78 345.771606
40.79 343.126617
40.80 348.259735
40.81 352.901764
40.82 342.555878
40.83 338.605377
40.84 339.72757
40.85 338.233063
40.86 342.467224
40.87 347.259308
40.88 350.151031
40.89 354.493683
40.90 351.141296
40.91 343.286987
40.92 341.620819
40.93 347.680054
40.94 350.403198
40.95 349.905182
40.96 350.702606
40.97 350.065033
40.98 347.788147
40.99 347.978577
41.00 346.702942
41.01 344.372284
41.02 343.535919
41.03 337.969177
41.04 334.669159
41.05 340.868713
41.06 346.768158
41.07 343.345001
41.08 338.480225
41.09 342.605255
41.10 344.614227
