!@!!GADDS PLOTSO FILE: Chi integration type
!@!!Title/SampleName: ML_MAPbX3_chem16_longer
!@!!User: NREL
!@!!Site: NREL SERF C211; SN 2510
!@!!Frame: 081922_ML_MAPbX3_chem16_long_000_001.gfrm
!@!!Wavelengths    1.54184   1.54056   1.54439
!@!!Frame angles: 2Theta: 28.000 Omega: 5.000 Phi: 0.000 Chi: 90.000
!@!!Integration range: 2Theta: 9.100 to 40.100  Gamma: -121.900 to -57.900
!@!!Integration method: bin normalized
!@!N
!@!SS
!@!M
!@!L 0.0 0.0 0.0 0.0
!@!XDegrees
!@!YCounts
9.10 461.696564
9.11 466.784027
9.12 457.356171
9.13 453.791199
9.14 455.884125
9.15 462.883301
9.16 466.795044
9.17 461.103027
9.18 454.503662
9.19 449.766876
9.20 448.526459
9.21 457.069153
9.22 464.609192
9.23 472.995941
9.24 472.319672
9.25 459.366882
9.26 453.48465
9.27 451.145752
9.28 439.927032
9.29 440.437927
9.30 445.575653
9.31 448.230804
9.32 457.517639
9.33 460.008575
9.34 464.265747
9.35 461.592865
9.36 451.556793
9.37 445.647552
9.38 451.438354
9.39 461.640961
9.40 463.737579
9.41 455.701477
9.42 451.002167
9.43 463.882446
9.44 467.683594
9.45 463.571045
9.46 472.371124
9.47 478.020355
9.48 480.446167
9.49 480.558838
9.50 471.490906
9.51 468.336823
9.52 478.107117
9.53 476.267883
9.54 459.784088
9.55 461.760681
9.56 485.291779
9.57 496.063873
9.58 482.079071
9.59 469.176666
9.60 461.672272
9.61 456.213501
9.62 460.246338
9.63 464.750488
9.64 468.883881
9.65 486.499786
9.66 484.278625
9.67 466.26709
9.68 466.943512
9.69 473.057037
9.70 473.560272
9.71 476.498413
9.72 486.463257
9.73 495.467896
9.74 495.007904
9.75 484.691223
9.76 485.337067
9.77 490.723663
9.78 487.127502
9.79 487.956848
9.80 491.054474
9.81 488.120117
9.82 484.252014
9.83 481.559631
9.84 484.461212
9.85 490.290161
9.86 490.147461
9.87 489.69986
9.88 495.530853
9.89 489.100006
9.90 482.660583
9.91 486.489716
9.92 481.611328
9.93 472.841949
9.94 468.977936
9.95 460.904755
9.96 471.900238
9.97 486.416779
9.98 493.135193
9.99 503.097076
10.00 498.962311
10.01 489.560242
10.02 494.772339
10.03 506.522247
10.04 505.08905
10.05 488.309601
10.06 486.845978
10.07 485.473877
10.08 476.736206
10.09 485.857727
10.10 501.508453
10.11 505.329498
10.12 500.526001
10.13 492.715149
10.14 487.17157
10.15 489.900146
10.16 487.568939
10.17 488.855042
10.18 494.457123
10.19 491.367737
10.20 494.983002
10.21 499.666473
10.22 489.057953
10.23 488.158203
10.24 500.101196
10.25 496.066071
10.26 496.472504
10.27 506.211853
10.28 505.829285
10.29 502.494843
10.30 497.561737
10.31 498.391235
10.32 504.749756
10.33 508.625427
10.34 509.830597
10.35 506.420197
10.36 502.396973
10.37 508.365021
10.38 519.932373
10.39 507.004272
10.40 488.638214
10.41 487.709808
10.42 497.69635
10.43 492.334503
10.44 484.412445
10.45 494.256256
10.46 504.238068
10.47 505.298126
10.48 506.954071
10.49 517.413391
10.50 506.880859
10.51 497.852661
10.52 502.55719
10.53 500.577881
10.54 503.993683
10.55 505.952667
10.56 506.55661
10.57 501.475067
10.58 500.28244
10.59 509.330902
10.60 516.750244
10.61 517.793518
10.62 514.48584
10.63 519.010254
10.64 528.842651
10.65 518.850403
10.66 513.685425
10.67 518.872192
10.68 520.032959
10.69 515.470032
10.70 515.649719
10.71 511.849487
10.72 510.997009
10.73 518.307068
10.74 512.616333
10.75 510.000671
10.76 519.007385
10.77 524.982727
10.78 525.940125
10.79 525.646851
10.80 522.184631
10.81 523.946777
10.82 532.148804
10.83 537.944214
10.84 536.58905
10.85 521.29425
10.86 514.849304
10.87 514.170471
10.88 503.562439
10.89 500.801605
10.90 513.625916
10.91 519.930115
10.92 520.094666
10.93 522.011841
10.94 534.202454
10.95 541.487854
10.96 537.203918
10.97 530.43634
10.98 521.922729
10.99 519.328247
11.00 506.322235
11.01 505.018005
11.02 514.106384
11.03 515.283142
11.04 517.334106
11.05 523.778687
11.06 529.900085
11.07 528.464111
11.08 526.243286
11.09 531.779968
11.10 534.8302
11.11 538.182129
11.12 538.032776
11.13 524.811829
11.14 527.90802
11.15 531.713684
11.16 531.769348
11.17 533.940979
11.18 523.079712
11.19 523.379028
11.20 523.488037
11.21 524.457275
11.22 541.386536
11.23 543.483398
11.24 543.006531
11.25 544.55542
11.26 545.114929
11.27 545.874634
11.28 537.311096
11.29 538.134277
11.30 537.989807
11.31 528.874329
11.32 536.126892
11.33 544.427673
11.34 541.753479
11.35 537.500305
11.36 535.622498
11.37 537.800232
11.38 533.574829
11.39 531.146973
11.40 543.071899
11.41 544.556091
11.42 547.171692
11.43 545.833984
11.44 543.560974
11.45 539.783142
11.46 534.319885
11.47 533.557495
11.48 536.882446
11.49 555.186462
11.50 563.027832
11.51 555.614746
11.52 548.454895
11.53 549.882324
11.54 550.740662
11.55 540.689514
11.56 535.325867
11.57 538.843689
11.58 547.024414
11.59 562.790405
11.60 566.359131
11.61 562.059265
11.62 557.371094
11.63 550.914551
11.64 545.49231
11.65 549.026733
11.66 558.460388
11.67 557.162659
11.68 553.778442
11.69 556.642517
11.70 552.652405
11.71 556.731384
11.72 560.99884
11.73 562.92627
11.74 573.576965
11.75 577.349182
11.76 569.712097
11.77 561.749146
11.78 564.545532
11.79 569.472229
11.80 575.5578
11.81 579.695435
11.82 576.434937
11.83 570.057861
11.84 562.230286
11.85 561.293701
11.86 577.07135
11.87 595.362976
11.88 595.727905
11.89 584.222473
11.90 564.249939
11.91 566.115906
11.92 582.989746
11.93 585.179688
11.94 580.657532
11.95 579.07196
11.96 588.31842
11.97 586.127014
11.98 579.679749
11.99 587.938904
12.00 590.003479
12.01 587.19696
12.02 591.228821
12.03 596.857849
12.04 602.302734
12.05 608.227783
12.06 614.888672
12.07 617.913269
12.08 616.611572
12.09 612.61792
12.10 606.533203
12.11 621.821045
12.12 638.287048
12.13 640.90686
12.14 648.258423
12.15 648.154602
12.16 652.732788
12.17 662.508606
12.18 653.971985
12.19 646.452515
12.20 650.403564
12.21 655.532776
12.22 656.489502
12.23 655.336121
12.24 668.665344
12.25 678.613159
12.26 674.822693
12.27 660.376099
12.28 654.054443
12.29 656.573486
12.30 664.904724
12.31 681.743591
12.32 696.484863
12.33 709.08374
12.34 709.792236
12.35 706.598328
12.36 714.475281
12.37 728.559509
12.38 727.235229
12.39 715.471619
12.40 716.510254
12.41 731.105591
12.42 742.903625
12.43 745.38855
12.44 751.030945
12.45 759.138855
12.46 759.461853
12.47 757.317017
12.48 766.477112
12.49 773.071289
12.50 779.572083
12.51 792.27301
12.52 808.18158
12.53 818.832458
12.54 802.746582
12.55 800.568359
12.56 813.879333
12.57 807.026855
12.58 810.818848
12.59 824.551941
12.60 825.886047
12.61 814.260559
12.62 807.381714
12.63 801.387451
12.64 804.08783
12.65 805.838745
12.66 806.252686
12.67 809.728577
12.68 796.260254
12.69 790.566101
12.70 789.886597
12.71 774.1875
12.72 767.282471
12.73 767.215271
12.74 766.747437
12.75 766.84967
12.76 755.27179
12.77 754.721985
12.78 760.034119
12.79 748.555481
12.80 742.383789
12.81 727.80603
12.82 720.917847
12.83 704.961914
12.84 696.082581
12.85 695.847107
12.86 697.897766
12.87 697.098206
12.88 687.798767
12.89 676.919922
12.90 673.63092
12.91 673.842712
12.92 665.467468
12.93 664.155945
12.94 672.499084
12.95 674.457214
12.96 675.401489
12.97 676.862549
12.98 678.120544
12.99 674.583252
13.00 670.406372
13.01 653.007751
13.02 646.566589
13.03 649.102112
13.04 647.210754
13.05 652.460083
13.06 646.378357
13.07 633.221375
13.08 637.408936
13.09 645.262207
13.10 647.755737
13.11 645.179016
13.12 644.089172
13.13 645.032593
13.14 639.011658
13.15 635.917664
13.16 628.307251
13.17 623.922791
13.18 625.09375
13.19 633.719849
13.20 645.432556
13.21 643.530823
13.22 641.016602
13.23 635.038269
13.24 631.517761
13.25 631.463928
13.26 630.326599
13.27 618.43927
13.28 613.6203
13.29 624.526001
13.30 636.97406
13.31 648.87915
13.32 648.501648
13.33 636.245544
13.34 635.344116
13.35 622.890198
13.36 607.39447
13.37 608.396301
13.38 619.103943
13.39 630.43927
13.40 632.470337
13.41 625.760376
13.42 623.229126
13.43 625.55011
13.44 624.339722
13.45 634.532104
13.46 649.569092
13.47 643.903931
13.48 629.172607
13.49 621.566345
13.50 627.891113
13.51 628.068237
13.52 627.431519
13.53 646.772827
13.54 655.593384
13.55 646.567505
13.56 644.049744
13.57 649.83728
13.58 649.364258
13.59 632.858093
13.60 635.79895
13.61 638.77301
13.62 633.968689
13.63 636.410339
13.64 644.679138
13.65 646.685913
13.66 645.787231
13.67 655.62384
13.68 656.490967
13.69 653.592773
13.70 652.390686
13.71 656.541809
13.72 652.590088
13.73 642.506714
13.74 645.164185
13.75 644.450195
13.76 646.593262
13.77 641.625
13.78 644.454041
13.79 667.287048
13.80 678.69873
13.81 673.405334
13.82 673.264526
13.83 671.702881
13.84 672.451721
13.85 668.031555
13.86 659.615967
13.87 659.675232
13.88 659.561401
13.89 666.239075
13.90 680.207581
13.91 677.692505
13.92 671.277649
13.93 667.499817
13.94 663.596863
13.95 660.622437
13.96 666.404419
13.97 682.562622
13.98 687.34436
13.99 689.545593
14.00 689.548889
14.01 685.900024
14.02 691.150146
14.03 688.348999
14.04 689.661377
14.05 700.847107
14.06 692.688293
14.07 692.223694
14.08 698.374939
14.09 703.648254
14.10 709.90387
14.11 704.257141
14.12 698.793701
14.13 700.264221
14.14 703.23584
14.15 698.748413
14.16 701.764954
14.17 696.269226
14.18 688.328369
14.19 693.049133
14.20 696.415527
14.21 699.259155
14.22 707.98053
14.23 704.62854
14.24 693.640015
14.25 692.501465
14.26 690.362122
14.27 689.01947
14.28 690.73761
14.29 692.562683
14.30 685.544983
14.31 682.559387
14.32 678.413696
14.33 674.078979
14.34 674.949219
14.35 671.263062
14.36 682.893799
14.37 689.160217
14.38 683.764893
14.39 686.505737
14.40 682.080505
14.41 679.96051
14.42 683.238159
14.43 686.029236
14.44 677.930481
14.45 672.755066
14.46 682.816956
14.47 696.531433
14.48 695.292725
14.49 680.374817
14.50 686.480713
14.51 691.890076
14.52 688.583801
14.53 692.693542
14.54 690.728943
14.55 682.323181
14.56 678.64386
14.57 684.535461
14.58 694.318909
14.59 704.052673
14.60 706.654724
14.61 704.95813
14.62 698.908875
14.63 694.938599
14.64 701.079285
14.65 702.220154
14.66 717.083374
14.67 729.172607
14.68 730.126038
14.69 735.914612
14.70 739.068726
14.71 733.05542
14.72 732.809143
14.73 743.906311
14.74 755.411194
14.75 761.358398
14.76 766.407288
14.77 763.928223
14.78 768.519409
14.79 780.186584
14.80 780.398254
14.81 787.734131
14.82 793.777649
14.83 796.479248
14.84 784.384399
14.85 789.024841
14.86 811.723389
14.87 828.639587
14.88 831.506714
14.89 853.857361
14.90 871.461487
14.91 878.169006
14.92 873.23291
14.93 870.483704
14.94 876.287231
14.95 895.715454
14.96 916.265686
14.97 927.163147
14.98 935.316772
14.99 945.019104
15.00 963.125793
15.01 974.21106
15.02 991.724243
15.03 1008.506958
15.04 1040.739014
15.05 1042.126709
15.06 1067.974121
15.07 1101.135864
15.08 1122.317627
15.09 1139.078247
15.10 1153.893677
15.11 1184.275513
15.12 1210.167236
15.13 1247.830078
15.14 1267.636719
15.15 1301.179321
15.16 1322.35498
15.17 1345.584106
15.18 1376.638062
15.19 1431.400391
15.20 1459.718994
15.21 1493.529297
15.22 1524.005005
15.23 1583.015625
15.24 1606.044556
15.25 1660.512329
15.26 1715.150513
15.27 1749.647217
15.28 1787.796875
15.29 1804.013794
15.30 1828.781616
15.31 1854.145386
15.32 1905.250488
15.33 1953.58606
15.34 2008.083618
15.35 2027.382446
15.36 2057.691895
15.37 2072.546143
15.38 2096.544434
15.39 2113.0896
15.40 2132.85498
15.41 2132.709229
15.42 2107.900635
15.43 2091.264893
15.44 2069.743896
15.45 2031.939087
15.46 2006.136353
15.47 1972.083374
15.48 1933.973877
15.49 1883.400879
15.50 1839.097412
15.51 1763.697876
15.52 1736.548584
15.53 1671.935669
15.54 1652.61145
15.55 1593.083496
15.56 1532.96875
15.57 1479.666992
15.58 1421.667236
15.59 1367.575439
15.60 1323.409424
15.61 1282.565552
15.62 1236.911499
15.63 1202.813477
15.64 1153.572021
15.65 1135.185303
15.66 1115.475098
15.67 1100.360962
15.68 1075.360718
15.69 1062.63208
15.70 1035.425659
15.71 1013.088623
15.72 995.089539
15.73 978.266968
15.74 960.361389
15.75 936.636841
15.76 912.25116
15.77 908.193176
15.78 902.29541
15.79 893.500244
15.80 898.520142
15.81 885.882141
15.82 876.137878
15.83 867.592346
15.84 865.080444
15.85 855.266663
15.86 847.960632
15.87 849.57312
15.88 846.947083
15.89 828.96814
15.90 814.103149
15.91 803.742554
15.92 797.930908
15.93 801.640381
15.94 797.193848
15.95 800.652649
15.96 809.354675
15.97 813.079956
15.98 813.49408
15.99 797.837036
16.00 783.023193
16.01 790.014404
16.02 788.408508
16.03 773.26239
16.04 767.211365
16.05 769.052979
16.06 767.51825
16.07 766.522278
16.08 758.229492
16.09 744.04895
16.10 735.859009
16.11 742.640686
16.12 747.969788
16.13 748.059509
16.14 747.856262
16.15 742.761047
16.16 741.347839
16.17 749.036926
16.18 758.22644
16.19 758.536438
16.20 752.336914
16.21 747.013123
16.22 740.496033
16.23 734.575012
16.24 734.263245
16.25 742.810425
16.26 749.875916
16.27 760.662598
16.28 751.987183
16.29 738.509949
16.30 734.852356
16.31 740.384521
16.32 760.095703
16.33 758.451599
16.34 747.334595
16.35 737.111877
16.36 736.604126
16.37 740.736694
16.38 733.203247
16.39 730.122925
16.40 729.862305
16.41 723.299561
16.42 731.343079
16.43 742.462952
16.44 744.499451
16.45 738.878479
16.46 733.345398
16.47 736.84082
16.48 746.81189
16.49 745.854797
16.50 733.51709
16.51 731.35437
16.52 729.480103
16.53 728.472839
16.54 729.911499
16.55 733.505615
16.56 747.092468
16.57 749.291443
16.58 746.384338
16.59 741.795959
16.60 739.259521
16.61 734.917358
16.62 736.673096
16.63 746.815552
16.64 738.951904
16.65 737.696289
16.66 744.180786
16.67 729.717224
16.68 725.656372
16.69 741.086487
16.70 747.17511
16.71 751.291565
16.72 749.817627
16.73 745.100464
16.74 748.744507
16.75 747.655518
16.76 746.103149
16.77 749.418213
16.78 748.03479
16.79 751.09491
16.80 763.962646
16.81 763.929993
16.82 758.873535
16.83 755.352661
16.84 745.820374
16.85 746.327759
16.86 757.994629
16.87 764.759094
16.88 757.742126
16.89 744.765381
16.90 736.829468
16.91 733.101318
16.92 736.354004
16.93 741.204407
16.94 744.676392
16.95 757.806641
16.96 766.283813
16.97 754.739258
16.98 744.335632
16.99 746.185669
17.00 753.608704
17.01 757.628845
17.02 758.51123
17.03 754.734192
17.04 743.649963
17.05 737.962097
17.06 740.59613
17.07 744.205688
17.08 747.195679
17.09 749.132446
17.10 745.493042
17.11 746.567078
17.12 748.151001
17.13 753.287964
17.14 764.152832
17.15 769.266113
17.16 762.724304
17.17 761.501648
17.18 762.797913
17.19 766.285461
17.20 767.80603
17.21 772.564575
17.22 770.797424
17.23 766.46814
17.24 770.354675
17.25 775.16449
17.26 776.479248
17.27 774.462036
17.28 768.137024
17.29 762.371033
17.30 758.402161
17.31 761.58606
17.32 761.603821
17.33 759.178162
17.34 759.254395
17.35 759.959106
17.36 765.249756
17.37 775.46582
17.38 782.469971
17.39 786.462524
17.40 786.121643
17.41 784.12323
17.42 781.339661
17.43 782.087036
17.44 782.444397
17.45 791.049683
17.46 795.238708
17.47 795.483521
17.48 785.236389
17.49 776.128967
17.50 780.305481
17.51 781.276001
17.52 785.601746
17.53 783.68219
17.54 782.348816
17.55 787.157898
17.56 790.35907
17.57 784.69812
17.58 784.137695
17.59 788.913635
17.60 788.672119
17.61 785.207642
17.62 789.55957
17.63 799.667419
17.64 800.970276
17.65 799.930664
17.66 802.049927
17.67 797.743225
17.68 785.82251
17.69 785.457825
17.70 793.042908
17.71 797.187561
17.72 797.457581
17.73 786.580505
17.74 781.223511
17.75 783.473999
17.76 792.649597
17.77 797.023254
17.78 791.260132
17.79 798.890381
17.80 808.962891
17.81 804.559998
17.82 807.914063
17.83 815.122375
17.84 813.703369
17.85 807.516663
17.86 806.161377
17.87 808.9823
17.88 810.746826
17.89 805.846375
17.90 795.170166
17.91 789.922913
17.92 795.464966
17.93 812.034424
17.94 814.373047
17.95 819.465515
17.96 821.762817
17.97 810.459473
17.98 806.869812
17.99 810.256836
18.00 816.322693
18.01 817.13031
18.02 812.732788
18.03 805.567078
18.04 802.588074
18.05 810.68103
18.06 813.546936
18.07 817.757507
18.08 828.214233
18.09 832.307617
18.10 829.177246
18.11 825.019104
18.12 822.889648
18.13 820.228088
18.14 824.753723
18.15 815.639282
18.16 810.114319
18.17 822.464661
18.18 833.257996
18.19 834.800293
18.20 844.511963
18.21 850.060303
18.22 848.971252
18.23 841.722473
18.24 840.52948
18.25 845.092407
18.26 843.156433
18.27 847.380432
18.28 848.422241
18.29 844.668457
18.30 845.390015
18.31 847.327454
18.32 846.360962
18.33 842.394409
18.34 844.458618
18.35 843.02533
18.36 844.120789
18.37 841.748535
18.38 834.440552
18.39 840.890198
18.40 837.100098
18.41 835.534851
18.42 851.406677
18.43 859.027283
18.44 866.896301
18.45 879.518555
18.46 879.744141
18.47 869.153015
18.48 859.445007
18.49 854.733643
18.50 851.870544
18.51 844.868347
18.52 847.99585
18.53 862.477417
18.54 873.259155
18.55 867.98938
18.56 855.503052
18.57 853.113647
18.58 856.633484
18.59 857.554199
18.60 861.39856
18.61 859.378784
18.62 855.744751
18.63 855.351318
18.64 859.22583
18.65 860.091614
18.66 855.51239
18.67 862.008179
18.68 870.144958
18.69 877.617737
18.70 869.985779
18.71 864.576416
18.72 863.648193
18.73 859.526855
18.74 871.001526
18.75 884.002441
18.76 884.930664
18.77 869.151123
18.78 859.061646
18.79 863.568298
18.80 874.066589
18.81 872.328979
18.82 866.865295
18.83 878.000183
18.84 889.025635
18.85 887.834045
18.86 889.935669
18.87 885.151367
18.88 881.619019
18.89 894.712158
18.90 895.920227
18.91 895.665161
18.92 897.773682
18.93 891.665527
18.94 894.36676
18.95 903.392883
18.96 907.128967
18.97 900.808655
18.98 903.351074
18.99 897.866272
19.00 891.852783
19.01 900.483704
19.02 905.583679
19.03 903.295959
19.04 895.941345
19.05 895.521545
19.06 905.077637
19.07 904.206543
19.08 902.169678
19.09 903.494812
19.10 912.763611
19.11 927.620789
19.12 924.896179
19.13 926.225586
19.14 928.975769
19.15 920.328491
19.16 912.269165
19.17 903.711487
19.18 909.126526
19.19 912.60498
19.20 910.773682
19.21 903.244995
19.22 902.001709
19.23 909.447144
19.24 908.692383
19.25 910.631653
19.26 919.416382
19.27 926.473938
19.28 918.659912
19.29 920.483643
19.30 930.154541
19.31 926.684387
19.32 924.274963
19.33 929.9599
19.34 924.840759
19.35 930.481689
19.36 933.475159
19.37 923.123657
19.38 927.705017
19.39 926.274719
19.40 917.984619
19.41 912.834229
19.42 919.000854
19.43 928.796204
19.44 932.808838
19.45 934.64032
19.46 943.446838
19.47 947.196228
19.48 943.622925
19.49 940.88678
19.50 938.207581
19.51 944.606506
19.52 950.370911
19.53 950.218567
19.54 949.513611
19.55 953.240356
19.56 953.185547
19.57 957.193787
19.58 966.635986
19.59 961.470825
19.60 949.526794
19.61 943.505554
19.62 932.388977
19.63 938.421448
19.64 951.22583
19.65 949.739014
19.66 959.425537
19.67 969.953247
19.68 968.190613
19.69 961.62146
19.70 962.543884
19.71 958.085999
19.72 961.590515
19.73 969.880249
19.74 968.825989
19.75 976.70105
19.76 974.298218
19.77 969.994202
19.78 966.477722
19.79 963.80011
19.80 970.076599
19.81 975.321472
19.82 978.837646
19.83 975.592041
19.84 973.030029
19.85 981.263367
19.86 994.794739
19.87 1008.819214
19.88 1015.588989
19.89 1010.011963
19.90 1011.730652
19.91 1021.18219
19.92 1017.789429
19.93 1001.704895
19.94 992.193909
19.95 993.702881
19.96 997.200195
19.97 996.166016
19.98 995.300598
19.99 988.40033
20.00 984.240845
20.01 984.975769
20.02 988.940125
20.03 994.205078
20.04 998.482788
20.05 994.995178
20.06 989.869934
20.07 998.840149
20.08 1012.87915
20.09 1017.882446
20.10 1019.015686
20.11 1010.992188
20.12 1003.922974
20.13 1009.592407
20.14 1006.535889
20.15 1005.348389
20.16 1015.576477
20.17 1020.610046
20.18 1017.505249
20.19 1015.199524
20.20 1018.285889
20.21 1019.487854
20.22 1023.351624
20.23 1037.102417
20.24 1041.842041
20.25 1038.727539
20.26 1034.915771
20.27 1027.484863
20.28 1021.54895
20.29 1029.440063
20.30 1029.402466
20.31 1027.678223
20.32 1041.296021
20.33 1040.353394
20.34 1021.352051
20.35 1013.70697
20.36 1013.099243
20.37 1024.150024
20.38 1046.496094
20.39 1051.929077
20.40 1040.405273
20.41 1039.921265
20.42 1036.533569
20.43 1034.804077
20.44 1035.493774
20.45 1034.415771
20.46 1032.38208
20.47 1033.519653
20.48 1029.593384
20.49 1043.613281
20.50 1066.59314
20.51 1074.365479
20.52 1065.230957
20.53 1046.014282
20.54 1032.249268
20.55 1040.535767
20.56 1045.319458
20.57 1039.332031
20.58 1040.394531
20.59 1037.863892
20.60 1041.782471
20.61 1051.622437
20.62 1048.080322
20.63 1041.308716
20.64 1039.918091
20.65 1041.076294
20.66 1048.773682
20.67 1060.920288
20.68 1067.837158
20.69 1072.606812
20.70 1069.522461
20.71 1076.792847
20.72 1082.775024
20.73 1089.693359
20.74 1094.736084
20.75 1090.300781
20.76 1084.625732
20.77 1078.9552
20.78 1069.054199
20.79 1069.29834
20.80 1072.696533
20.81 1068.662476
20.82 1076.890747
20.83 1090.379639
20.84 1091.006226
20.85 1094.956909
20.86 1104.608398
20.87 1112.223633
20.88 1117.67749
20.89 1117.015381
20.90 1105.216431
20.91 1093.081543
20.92 1084.24939
20.93 1085.509033
20.94 1098.041138
20.95 1097.276978
20.96 1095.845703
20.97 1104.727295
20.98 1104.794922
20.99 1100.861694
21.00 1098.05188
21.01 1107.57312
21.02 1106.247803
21.03 1096.974365
21.04 1094.468872
21.05 1093.963379
21.06 1097.76709
21.07 1105.211426
21.08 1112.259888
21.09 1126.925537
21.10 1133.348389
21.11 1121.447998
21.12 1108.613281
21.13 1100.681152
21.14 1109.684937
21.15 1119.893921
21.16 1121.882935
21.17 1113.692749
21.18 1107.603027
21.19 1110.216064
21.20 1127.772339
21.21 1137.350098
21.22 1139.934814
21.23 1141.467407
21.24 1140.015259
21.25 1146.757324
21.26 1153.679443
21.27 1151.201416
21.28 1151.575684
21.29 1136.795532
21.30 1123.48999
21.31 1129.784424
21.32 1136.944336
21.33 1136.39917
21.34 1134.948853
21.35 1133.258667
21.36 1142.751099
21.37 1146.775757
21.38 1144.125732
21.39 1143.050903
21.40 1132.829224
21.41 1136.598877
21.42 1149.10791
21.43 1157.652466
21.44 1158.049072
21.45 1150.495728
21.46 1144.685547
21.47 1168.136475
21.48 1181.838501
21.49 1173.647461
21.50 1173.995117
21.51 1180.772583
21.52 1177.606445
21.53 1172.825684
21.54 1176.598999
21.55 1175.448364
21.56 1180.991211
21.57 1196.098511
21.58 1205.034668
21.59 1193.161133
21.60 1177.938354
21.61 1184.809326
21.62 1191.977417
21.63 1201.153198
21.64 1210.787109
21.65 1204.203247
21.66 1199.471558
21.67 1205.583984
21.68 1201.583496
21.69 1197.530762
21.70 1200.867188
21.71 1204.654053
21.72 1214.221313
21.73 1222.686157
21.74 1214.244385
21.75 1214.37793
21.76 1225.171509
21.77 1218.838867
21.78 1224.60791
21.79 1230.088623
21.80 1230.867798
21.81 1231.826782
21.82 1218.329102
21.83 1215.846558
21.84 1220.418823
21.85 1222.74939
21.86 1228.062622
21.87 1223.888794
21.88 1221.136353
21.89 1223.750732
21.90 1224.312378
21.91 1222.942749
21.92 1221.59668
21.93 1220.848999
21.94 1219.880859
21.95 1218.255615
21.96 1220.728149
21.97 1223.640137
21.98 1217.414063
21.99 1215.731812
22.00 1222.245239
22.01 1220.009888
22.02 1212.929077
22.03 1206.149902
22.04 1213.871704
22.05 1214.71582
22.06 1212.008179
22.07 1213.889404
22.08 1208.292847
22.09 1218.77063
22.10 1227.244995
22.11 1221.083008
22.12 1222.65564
22.13 1226.269531
22.14 1217.800415
22.15 1212.156982
22.16 1216.606445
22.17 1212.703613
22.18 1215.974121
22.19 1231.433838
22.20 1229.857056
22.21 1217.006348
22.22 1210.866333
22.23 1206.651733
22.24 1208.010742
22.25 1214.852661
22.26 1215.12793
22.27 1213.592041
22.28 1217.703735
22.29 1227.109619
22.30 1227.800781
22.31 1228.846924
22.32 1223.264282
22.33 1215.479126
22.34 1221.744141
22.35 1216.887085
22.36 1203.255371
22.37 1205.144653
22.38 1217.654541
22.39 1220.918701
22.40 1217.51355
22.41 1223.466675
22.42 1231.487183
22.43 1229.221802
22.44 1228.79126
22.45 1235.237915
22.46 1237.557983
22.47 1244.975952
22.48 1244.512451
22.49 1234.728027
22.50 1234.809448
22.51 1234.900269
22.52 1236.657104
22.53 1237.233398
22.54 1233.917969
22.55 1243.933716
22.56 1258.857422
22.57 1259.094849
22.58 1264.589355
22.59 1264.769409
22.60 1261.026855
22.61 1259.182129
22.62 1263.390015
22.63 1260.958618
22.64 1256.529053
22.65 1258.167725
22.66 1250.633179
22.67 1239.675171
22.68 1243.021729
22.69 1244.591675
22.70 1251.307739
22.71 1270.716431
22.72 1270.246704
22.73 1256.330933
22.74 1249.815796
22.75 1251.161377
22.76 1254.624878
22.77 1266.984009
22.78 1261.597534
22.79 1253.856445
22.80 1261.065063
22.81 1270.734009
22.82 1278.869507
22.83 1273.545654
22.84 1269.266724
22.85 1273.741821
22.86 1270.783447
22.87 1264.154785
22.88 1261.785889
22.89 1267.02417
22.90 1266.126953
22.91 1266.038208
22.92 1277.187134
22.93 1282.601563
22.94 1285.577515
22.95 1284.296631
22.96 1279.876099
22.97 1272.812134
22.98 1260.014771
22.99 1252.548584
23.00 1259.645386
23.01 1267.686157
23.02 1268.726074
23.03 1273.448364
23.04 1267.568237
23.05 1271.663086
23.06 1286.942017
23.07 1296.893677
23.08 1297.041382
23.09 1292.37915
23.10 1282.058594
23.11 1264.025513
23.12 1255.80896
23.13 1269.94397
23.14 1281.049805
23.15 1287.505249
23.16 1282.533447
23.17 1274.177246
23.18 1277.044312
23.19 1284.726074
23.20 1285.578247
23.21 1279.03064
23.22 1272.425049
23.23 1254.290649
23.24 1253.115601
23.25 1269.647705
23.26 1275.949097
23.27 1276.706421
23.28 1268.854736
23.29 1270.478271
23.30 1277.392578
23.31 1285.327393
23.32 1292.146484
23.33 1290.440308
23.34 1290.620483
23.35 1292.464966
23.36 1290.551392
23.37 1283.033569
23.38 1277.123047
23.39 1276.924683
23.40 1278.645752
23.41 1280.731445
23.42 1279.20105
23.43 1272.149048
23.44 1279.546021
23.45 1282.203735
23.46 1279.750244
23.47 1271.429321
23.48 1278.623047
23.49 1299.335449
23.50 1298.659546
23.51 1281.402832
23.52 1274.183838
23.53 1278.836548
23.54 1284.272583
23.55 1280.089478
23.56 1277.825684
23.57 1283.642944
23.58 1288.268066
23.59 1295.721802
23.60 1300.716309
23.61 1292.015869
23.62 1283.720459
23.63 1287.114868
23.64 1286.482666
23.65 1283.468018
23.66 1283.906128
23.67 1282.998779
23.68 1287.341431
23.69 1293.518677
23.70 1295.494995
23.71 1297.440063
23.72 1292.538574
23.73 1280.631836
23.74 1286.404907
23.75 1294.13501
23.76 1303.779663
23.77 1315.149292
23.78 1317.393066
23.79 1309.708374
23.80 1305.278687
23.81 1301.655884
23.82 1304.060669
23.83 1301.340088
23.84 1310.286255
23.85 1310.37207
23.86 1298.827148
23.87 1302.789307
23.88 1306.129028
23.89 1305.345581
23.90 1310.350464
23.91 1317.662231
23.92 1317.860107
23.93 1311.71814
23.94 1299.413208
23.95 1296.129517
23.96 1297.878174
23.97 1303.947021
23.98 1306.84314
23.99 1305.405029
24.00 1303.413086
24.01 1307.272827
24.02 1311.674438
24.03 1308.300781
24.04 1314.273682
24.05 1318.604736
24.06 1306.842529
24.07 1298.11853
24.08 1308.050903
24.09 1313.565918
24.10 1312.267212
24.11 1314.598267
24.12 1313.299316
24.13 1309.823608
24.14 1312.784058
24.15 1315.864868
24.16 1313.193359
24.17 1314.779785
24.18 1318.271484
24.19 1309.96167
24.20 1310.810425
24.21 1313.195801
24.22 1306.429199
24.23 1303.939941
24.24 1308.711548
24.25 1315.232788
24.26 1313.13623
24.27 1317.026855
24.28 1323.136108
24.29 1318.731689
24.30 1307.76355
24.31 1301.795776
24.32 1310.322998
24.33 1322.331543
24.34 1328.335815
24.35 1321.750366
24.36 1321.04541
24.37 1322.873413
24.38 1322.819092
24.39 1319.324829
24.40 1328.779663
24.41 1327.734375
24.42 1321.773804
24.43 1319.133789
24.44 1318.102661
24.45 1316.549072
24.46 1309.34314
24.47 1300.511719
24.48 1304.069702
24.49 1311.990234
24.50 1331.036377
24.51 1345.108643
24.52 1329.190918
24.53 1320.442749
24.54 1321.534302
24.55 1317.754761
24.56 1319.486694
24.57 1325.675781
24.58 1326.32959
24.59 1315.807373
24.60 1310.547241
24.61 1311.564087
24.62 1318.289063
24.63 1323.683472
24.64 1320.708862
24.65 1315.168579
24.66 1322.179688
24.67 1325.536133
24.68 1310.376221
24.69 1308.039673
24.70 1319.023682
24.71 1322.449341
24.72 1331.965698
24.73 1332.166626
24.74 1316.708984
24.75 1316.373047
24.76 1321.26355
24.77 1329.193115
24.78 1326.64624
24.79 1325.128052
24.80 1319.093506
24.81 1314.386108
24.82 1326.022217
24.83 1320.931763
24.84 1304.969238
24.85 1306.848022
24.86 1318.179199
24.87 1317.094971
24.88 1323.138672
24.89 1325.363525
24.90 1324.595459
24.91 1325.896118
24.92 1332.391602
24.93 1341.659424
24.94 1332.016479
24.95 1321.578979
24.96 1316.399414
24.97 1316.424561
24.98 1318.172119
24.99 1328.180786
25.00 1337.286377
25.01 1333.714478
25.02 1335.428711
25.03 1330.900757
25.04 1323.150269
25.05 1318.314575
25.06 1321.414185
25.07 1321.528198
25.08 1324.142822
25.09 1329.446411
25.10 1323.67688
25.11 1321.98645
25.12 1323.76709
25.13 1323.029663
25.14 1328.073486
25.15 1323.352051
25.16 1326.064941
25.17 1320.727905
25.18 1331.824951
25.19 1341.671021
25.20 1342.332764
25.21 1345.067383
25.22 1339.482056
25.23 1335.456299
25.24 1332.11377
25.25 1323.044556
25.26 1322.584595
25.27 1331.366455
25.28 1330.809326
25.29 1333.995239
25.30 1331.388916
25.31 1323.575195
25.32 1319.389648
25.33 1322.465698
25.34 1328.118042
25.35 1339.185059
25.36 1349.077271
25.37 1339.899658
25.38 1321.090454
25.39 1323.914673
25.40 1332.335327
25.41 1326.972168
25.42 1335.265259
25.43 1338.85376
25.44 1338.491577
25.45 1348.840088
25.46 1350.424927
25.47 1338.446777
25.48 1327.769897
25.49 1334.836182
25.50 1342.230347
25.51 1328.470215
25.52 1321.175781
25.53 1333.639038
25.54 1341.515503
25.55 1346.679565
25.56 1348.287598
25.57 1344.278564
25.58 1340.033203
25.59 1331.727783
25.60 1330.272705
25.61 1344.559814
25.62 1351.956787
25.63 1343.944946
25.64 1337.538086
25.65 1326.535156
25.66 1324.198975
25.67 1330.759888
25.68 1323.018799
25.69 1304.486816
25.70 1306.231201
25.71 1318.717407
25.72 1324.368286
25.73 1335.533203
25.74 1350.160767
25.75 1352.042603
25.76 1342.895508
25.77 1343.620361
25.78 1337.087646
25.79 1322.05127
25.80 1325.306396
25.81 1331.941895
25.82 1317.891235
25.83 1303.483276
25.84 1303.395264
25.85 1311.825562
25.86 1322.777588
25.87 1336.783325
25.88 1351.685425
25.89 1346.849976
25.90 1342.974121
25.91 1341.723267
25.92 1330.550415
25.93 1322.552856
25.94 1316.951294
25.95 1317.470093
25.96 1326.119263
25.97 1326.447021
25.98 1318.489258
25.99 1318.48291
26.00 1325.654663
26.01 1332.199463
26.02 1339.718018
26.03 1345.574585
26.04 1346.328125
26.05 1337.420288
26.06 1332.822388
26.07 1329.439087
26.08 1331.119995
26.09 1323.474365
26.10 1317.543213
26.11 1321.460205
26.12 1323.346313
26.13 1326.126465
26.14 1327.373535
26.15 1324.757202
26.16 1320.879639
26.17 1319.01416
26.18 1318.271362
26.19 1317.381836
26.20 1323.353638
26.21 1330.301025
26.22 1329.891479
26.23 1319.68335
26.24 1314.729004
26.25 1321.954834
26.26 1318.971802
26.27 1318.9729
26.28 1330.960327
26.29 1331.333008
26.30 1330.516235
26.31 1324.386353
26.32 1318.36499
26.33 1321.289795
26.34 1313.991577
26.35 1309.085693
26.36 1306.559814
26.37 1310.926025
26.38 1315.727661
26.39 1319.23291
26.40 1325.479004
26.41 1329.731812
26.42 1318.278931
26.43 1310.140381
26.44 1310.006348
26.45 1320.979858
26.46 1325.197144
26.47 1317.170654
26.48 1319.004517
26.49 1322.314453
26.50 1311.30127
26.51 1310.829102
26.52 1319.477295
26.53 1320.740356
26.54 1317.287598
26.55 1319.845215
26.56 1323.833008
26.57 1329.251953
26.58 1323.823242
26.59 1319.925781
26.60 1318.421509
26.61 1322.537476
26.62 1321.522705
26.63 1322.94165
26.64 1318.795776
26.65 1301.036377
26.66 1297.386719
26.67 1300.048218
26.68 1293.930054
26.69 1308.88562
26.70 1318.297607
26.71 1310.303345
26.72 1308.707397
26.73 1311.979492
26.74 1315.011841
26.75 1312.594849
26.76 1317.179932
26.77 1318.452026
26.78 1313.312988
26.79 1314.843018
26.80 1325.623535
26.81 1330.045288
26.82 1320.710693
26.83 1317.761597
26.84 1311.723511
26.85 1311.327393
26.86 1314.581177
26.87 1311.302002
26.88 1302.467163
26.89 1297.595947
26.90 1291.947998
26.91 1294.792603
26.92 1299.287231
26.93 1297.752686
26.94 1296.509033
26.95 1301.305176
26.96 1306.48291
26.97 1310.055542
26.98 1306.201416
26.99 1306.960938
27.00 1317.640625
27.01 1318.045532
27.02 1309.46228
27.03 1311.509521
27.04 1310.169556
27.05 1307.794678
27.06 1312.687012
27.07 1310.704834
27.08 1307.900269
27.09 1308.032837
27.10 1297.135376
27.11 1283.385254
27.12 1286.408081
27.13 1293.341064
27.14 1297.272461
27.15 1299.825928
27.16 1288.29895
27.17 1284.546143
27.18 1296.119751
27.19 1310.250854
27.20 1316.783691
27.21 1318.502686
27.22 1314.825317
27.23 1311.560547
27.24 1309.305176
27.25 1301.168457
27.26 1289.526367
27.27 1293.686279
27.28 1307.554443
27.29 1304.743774
27.30 1302.025635
27.31 1303.238403
27.32 1303.361328
27.33 1295.066772
27.34 1283.638062
27.35 1282.135986
27.36 1294.202515
27.37 1299.883911
27.38 1292.241821
27.39 1284.467041
27.40 1287.387939
27.41 1298.535767
27.42 1300.690308
27.43 1301.328735
27.44 1299.902222
27.45 1295.425903
27.46 1284.96106
27.47 1286.963257
27.48 1292.045898
27.49 1297.650024
27.50 1296.587646
27.51 1290.126831
27.52 1300.744751
27.53 1302.421753
27.54 1291.266602
27.55 1291.959229
27.56 1295.347412
27.57 1292.330566
27.58 1293.033813
27.59 1294.162964
27.60 1292.041382
27.61 1288.431396
27.62 1281.760132
27.63 1284.995117
27.64 1294.959595
27.65 1296.73999
27.66 1296.839233
27.67 1295.575317
27.68 1287.310913
27.69 1286.733643
27.70 1292.646973
27.71 1298.441162
27.72 1313.163696
27.73 1317.574463
27.74 1311.131714
27.75 1303.765869
27.76 1293.053345
27.77 1281.562744
27.78 1277.19458
27.79 1281.164063
27.80 1284.896973
27.81 1289.622192
27.82 1286.66687
27.83 1286.014526
27.84 1290.188843
27.85 1290.426025
27.86 1285.671753
27.87 1283.317261
27.88 1283.499634
27.89 1275.171143
27.90 1269.577759
27.91 1276.844971
27.92 1280.837158
27.93 1278.506104
27.94 1278.941284
27.95 1283.795898
27.96 1294.109497
27.97 1293.531494
27.98 1301.130981
27.99 1302.440308
28.00 1298.820557
28.01 1290.63269
28.02 1276.590942
28.03 1275.536377
28.04 1278.268921
28.05 1280.646973
28.06 1284.6521
28.07 1279.320313
28.08 1273.330688
28.09 1269.55835
28.10 1278.666992
28.11 1288.715454
28.12 1288.975342
28.13 1277.458252
28.14 1272.419556
28.15 1286.833008
28.16 1297.226685
28.17 1307.142822
28.18 1306.092773
28.19 1297.995239
28.20 1289.767822
28.21 1286.074097
28.22 1292.441528
28.23 1290.990234
28.24 1289.620972
28.25 1276.267944
28.26 1265.071411
28.27 1272.93457
28.28 1278.101318
28.29 1281.407471
28.30 1286.970337
28.31 1283.928467
28.32 1286.555908
28.33 1280.6604
28.34 1286.494141
28.35 1298.486816
28.36 1297.233276
28.37 1295.603271
28.38 1284.366089
28.39 1276.017578
28.40 1275.205688
28.41 1286.526855
28.42 1295.263306
28.43 1293.726807
28.44 1286.717407
28.45 1278.153809
28.46 1281.578491
28.47 1289.391602
28.48 1304.432129
28.49 1304.238403
28.50 1286.275513
28.51 1292.226929
28.52 1289.634521
28.53 1286.162476
28.54 1293.416992
28.55 1290.119507
28.56 1286.102783
28.57 1290.268311
28.58 1294.524536
28.59 1300.536621
28.60 1305.72644
28.61 1303.957275
28.62 1298.748657
28.63 1290.129761
28.64 1285.825439
28.65 1275.206787
28.66 1273.790527
28.67 1267.968018
28.68 1264.417358
28.69 1269.929199
28.70 1271.840454
28.71 1270.498413
28.72 1270.110107
28.73 1266.342285
28.74 1261.169189
28.75 1254.589966
28.76 1255.272827
28.77 1270.528931
28.78 1283.566284
28.79 1278.932373
28.80 1277.321167
28.81 1289.549927
28.82 1292.661621
28.83 1282.818848
28.84 1276.885742
28.85 1267.286255
28.86 1259.047363
28.87 1262.811523
28.88 1268.583862
28.89 1267.955444
28.90 1256.823608
28.91 1256.537476
28.92 1264.647095
28.93 1268.983765
28.94 1265.160156
28.95 1259.168701
28.96 1255.503906
28.97 1247.641479
28.98 1242.272705
28.99 1239.396118
29.00 1235.751099
29.01 1238.01123
29.02 1249.68042
29.03 1259.931885
29.04 1266.075806
29.05 1264.319824
29.06 1262.133179
29.07 1267.141357
29.08 1262.348633
29.09 1267.708496
29.10 1274.959961
29.11 1266.197021
29.12 1259.137329
29.13 1257.431885
29.14 1254.647705
29.15 1245.14917
29.16 1244.430908
29.17 1246.458008
29.18 1248.552979
29.19 1262.763428
29.20 1272.814331
29.21 1265.659424
29.22 1250.603516
29.23 1246.510864
29.24 1247.491821
29.25 1239.662109
29.26 1234.543335
29.27 1239.491455
29.28 1251.783081
29.29 1264.31189
29.30 1265.981567
29.31 1267.248657
29.32 1265.877319
29.33 1263.372314
29.34 1266.744751
29.35 1261.396973
29.36 1250.394165
29.37 1238.430664
29.38 1235.763184
29.39 1236.196655
29.40 1233.1073
29.41 1233.076172
29.42 1236.911133
29.43 1242.744507
29.44 1252.846802
29.45 1253.865845
29.46 1256.459839
29.47 1260.611938
29.48 1258.300659
29.49 1258.540527
29.50 1258.091187
29.51 1253.134644
29.52 1247.867188
29.53 1243.692627
29.54 1235.798462
29.55 1236.291138
29.56 1242.101563
29.57 1244.54187
29.58 1245.099731
29.59 1236.81897
29.60 1237.240845
29.61 1242.357056
29.62 1255.374268
29.63 1260.837524
29.64 1254.760254
29.65 1257.216187
29.66 1264.09082
29.67 1255.829468
29.68 1254.571533
29.69 1240.532471
29.70 1232.041016
29.71 1236.06897
29.72 1243.255859
29.73 1247.446289
29.74 1246.236206
29.75 1238.16748
29.76 1235.036987
29.77 1237.307495
29.78 1244.594971
29.79 1241.161499
29.80 1239.776733
29.81 1243.328491
29.82 1253.989624
29.83 1250.072021
29.84 1244.215332
29.85 1248.431274
29.86 1248.320923
29.87 1242.599243
29.88 1240.042603
29.89 1235.008667
29.90 1236.491333
29.91 1239.106445
29.92 1233.883179
29.93 1241.211426
29.94 1246.550171
29.95 1242.970337
29.96 1239.940186
29.97 1245.331177
29.98 1246.969238
29.99 1241.514526
30.00 1234.901978
30.01 1232.639038
30.02 1230.638062
30.03 1222.18811
30.04 1239.137939
30.05 1250.866577
30.06 1246.113403
30.07 1243.743896
30.08 1243.108154
30.09 1237.511963
30.10 1238.110474
30.11 1237.161743
30.12 1237.474731
30.13 1245.776978
30.14 1259.348877
30.15 1256.136475
30.16 1244.620361
30.17 1232.626953
30.18 1233.668457
30.19 1234.355957
30.20 1233.385498
30.21 1227.509155
30.22 1230.889526
30.23 1232.332275
30.24 1234.126465
30.25 1235.730103
30.26 1235.717773
30.27 1240.273071
30.28 1242.006348
30.29 1245.132324
30.30 1247.166016
30.31 1249.236328
30.32 1250.202637
30.33 1240.971191
30.34 1234.288818
30.35 1233.560791
30.36 1234.294067
30.37 1231.134766
30.38 1246.329712
30.39 1254.184448
30.40 1246.573975
30.41 1242.278687
30.42 1242.183228
30.43 1241.697388
30.44 1241.302856
30.45 1241.798584
30.46 1249.130981
30.47 1250.272339
30.48 1242.210449
30.49 1241.913208
30.50 1242.819824
30.51 1241.199341
30.52 1246.215332
30.53 1250.759766
30.54 1253.552002
30.55 1249.935181
30.56 1238.140991
30.57 1229.579224
30.58 1233.395264
30.59 1234.490723
30.60 1229.582275
30.61 1233.293579
30.62 1234.355469
30.63 1239.584229
30.64 1245.091187
30.65 1250.012939
30.66 1253.503662
30.67 1234.772339
30.68 1232.619019
30.69 1252.869751
30.70 1261.582397
30.71 1265.804688
30.72 1262.924805
30.73 1265.894287
30.74 1269.900024
30.75 1272.665039
30.76 1280.119141
30.77 1294.835083
30.78 1292.072388
30.79 1287.972534
30.80 1284.709961
30.81 1297.888672
30.82 1307.081543
30.83 1310.592285
30.84 1314.604492
30.85 1311.775024
30.86 1316.816162
30.87 1323.719971
30.88 1330.814819
30.89 1334.304077
30.90 1333.046631
30.91 1348.497803
30.92 1366.466309
30.93 1378.716675
30.94 1398.009399
30.95 1411.7948
30.96 1414.837158
30.97 1442.290649
30.98 1447.611084
30.99 1457.005371
31.00 1478.097168
31.01 1491.267578
31.02 1499.605347
31.03 1517.366943
31.04 1540.343262
31.05 1544.252808
31.06 1546.026001
31.07 1546.663452
31.08 1553.774658
31.09 1562.296021
31.10 1561.540771
31.11 1566.04834
31.12 1575.158081
31.13 1590.165283
31.14 1598.043701
31.15 1595.949463
31.16 1591.057129
31.17 1575.045044
31.18 1566.723511
31.19 1550.367676
31.20 1542.988892
31.21 1539.469604
31.22 1520.300415
31.23 1498.954102
31.24 1488.421631
31.25 1476.459229
31.26 1455.042969
31.27 1448.073486
31.28 1434.613525
31.29 1426.05188
31.30 1415.374634
31.31 1404.298584
31.32 1396.014648
31.33 1374.506836
31.34 1354.390503
31.35 1336.65686
31.36 1332.729736
31.37 1317.367188
31.38 1308.804199
31.39 1289.394775
31.40 1278.28125
31.41 1272.520996
31.42 1263.578979
31.43 1256.227295
31.44 1258.780884
31.45 1261.078491
31.46 1246.498169
31.47 1237.420288
31.48 1229.214844
31.49 1224.029053
31.50 1220.867798
31.51 1223.183472
31.52 1221.744019
31.53 1224.481934
31.54 1224.248047
31.55 1218.057983
31.56 1209.911377
31.57 1203.311646
31.58 1199.476929
31.59 1192.556641
31.60 1186.786499
31.61 1182.11853
31.62 1184.819702
31.63 1195.529053
31.64 1191.12561
31.65 1187.463867
31.66 1191.639038
31.67 1187.821655
31.68 1195.941284
31.69 1200.286499
31.70 1189.634888
31.71 1182.344971
31.72 1177.807617
31.73 1175.403198
31.74 1167.475342
31.75 1169.743286
31.76 1182.04126
31.77 1183.306519
31.78 1179.383423
31.79 1172.478394
31.80 1167.768433
31.81 1176.309204
31.82 1183.258301
31.83 1178.34668
31.84 1169.95813
31.85 1163.626709
31.86 1163.05542
31.87 1165.13623
31.88 1163.808472
31.89 1163.508545
31.90 1170.014282
31.91 1167.228882
31.92 1158.92627
31.93 1158.830688
31.94 1156.684448
31.95 1154.692749
31.96 1156.355713
31.97 1161.122192
31.98 1156.810669
31.99 1145.803223
32.00 1135.55249
32.01 1136.486206
32.02 1139.658813
32.03 1146.860229
32.04 1148.582397
32.05 1152.549072
32.06 1157.211426
32.07 1153.591919
32.08 1145.528564
32.09 1144.430298
32.10 1147.072632
32.11 1143.769165
32.12 1144.432129
32.13 1149.254761
32.14 1144.144165
32.15 1136.755493
32.16 1122.402954
32.17 1122.230225
32.18 1124.647949
32.19 1132.27124
32.20 1143.133789
32.21 1144.373779
32.22 1132.772095
32.23 1124.826538
32.24 1120.480103
32.25 1120.547363
32.26 1132.092896
32.27 1143.121582
32.28 1142.579834
32.29 1137.187012
32.30 1133.118774
32.31 1130.860107
32.32 1132.98584
32.33 1136.540527
32.34 1133.833252
32.35 1130.241211
32.36 1127.374023
32.37 1127.996216
32.38 1123.449219
32.39 1114.202271
32.40 1110.293213
32.41 1108.325928
32.42 1110.553711
32.43 1110.718018
32.44 1110.56897
32.45 1112.395508
32.46 1115.016235
32.47 1120.060181
32.48 1120.012451
32.49 1112.60791
32.50 1103.26001
32.51 1100.841675
32.52 1102.492432
32.53 1098.772095
32.54 1104.291748
32.55 1107.105591
32.56 1103.336304
32.57 1111.334106
32.58 1112.289673
32.59 1102.343628
32.60 1104.25
32.61 1108.022583
32.62 1108.57312
32.63 1116.2052
32.64 1113.626343
32.65 1109.550293
32.66 1100.776001
32.67 1091.551025
32.68 1097.193604
32.69 1100.983887
32.70 1095.442139
32.71 1092.888672
32.72 1092.546143
32.73 1095.831787
32.74 1102.162964
32.75 1105.733521
32.76 1101.372314
32.77 1095.20874
32.78 1093.947388
32.79 1087.60376
32.80 1086.380737
32.81 1093.104126
32.82 1097.125122
32.83 1094.273682
32.84 1082.705566
32.85 1077.10376
32.86 1079.61792
32.87 1085.325806
32.88 1088.436279
32.89 1085.726929
32.90 1086.10791
32.91 1083.145386
32.92 1077.248535
32.93 1075.947388
32.94 1066.848267
32.95 1069.984131
32.96 1077.281738
32.97 1074.346558
32.98 1077.682617
32.99 1080.199829
33.00 1080.992188
33.01 1079.949097
33.02 1075.718384
33.03 1071.241333
33.04 1070.088989
33.05 1070.670898
33.06 1071.894531
33.07 1073.77771
33.08 1071.795166
33.09 1063.473633
33.10 1055.584106
33.11 1053.731323
33.12 1056.87793
33.13 1063.972168
33.14 1061.418091
33.15 1063.349365
33.16 1065.759521
33.17 1059.486084
33.18 1058.198486
33.19 1061.517944
33.20 1062.935547
33.21 1061.025024
33.22 1065.021729
33.23 1064.003174
33.24 1065.9375
33.25 1068.37207
33.26 1060.490845
33.27 1056.967773
33.28 1058.131836
33.29 1055.880371
33.30 1059.348145
33.31 1063.299805
33.32 1064.972656
33.33 1067.726074
33.34 1062.983032
33.35 1056.937988
33.36 1052.546265
33.37 1050.731323
33.38 1056.533081
33.39 1058.029907
33.40 1045.0354
33.41 1040.105103
33.42 1047.552856
33.43 1052.950562
33.44 1049.730469
33.45 1047.186157
33.46 1049.304688
33.47 1053.207275
33.48 1059.04834
33.49 1054.55957
33.50 1050.216797
33.51 1048.471924
33.52 1050.540283
33.53 1044.22644
33.54 1030.939453
33.55 1022.705383
33.56 1039.686768
33.57 1050.843994
33.58 1048.04126
33.59 1037.262695
33.60 1030.019653
33.61 1031.549194
33.62 1032.314697
33.63 1035.124878
33.64 1046.204468
33.65 1046.891602
33.66 1046.804199
33.67 1048.115356
33.68 1054.478394
33.69 1050.744995
33.70 1043.108765
33.71 1037.477295
33.72 1031.923096
33.73 1031.058838
33.74 1033.444824
33.75 1033.959106
33.76 1032.50061
33.77 1029.619751
33.78 1030.466675
33.79 1025.624146
33.80 1018.683777
33.81 1013.853943
33.82 1014.69635
33.83 1017.012939
33.84 1018.436584
33.85 1021.476074
33.86 1023.584351
33.87 1024.902954
33.88 1019.361938
33.89 1020.475769
33.90 1023.674805
33.91 1025.626343
33.92 1019.129517
33.93 1015.167542
33.94 1017.531616
33.95 1022.715637
33.96 1029.006592
33.97 1026.042725
33.98 1021.58197
33.99 1020.012817
34.00 1015.029907
34.01 1012.008972
34.02 1014.740906
34.03 1015.439819
34.04 1018.782837
34.05 1019.15094
34.06 1017.54718
34.07 1019.385071
34.08 1027.61731
34.09 1025.165649
34.10 1019.972351
34.11 1015.557068
34.12 1009.600342
34.13 1005.786499
34.14 1008.641541
34.15 1016.922241
34.16 1015.179016
34.17 1004.812622
34.18 1002.728943
34.19 1011.742004
34.20 1018.712952
34.21 1027.089722
34.22 1033.082031
34.23 1027.397583
34.24 1016.242798
34.25 1015.017883
34.26 1017.384399
34.27 1022.148682
34.28 1020.553162
34.29 1018.867981
34.30 1022.330383
34.31 1020.813965
34.32 1017.850342
34.33 1017.786133
34.34 1016.217896
34.35 1023.562988
34.36 1029.859009
34.37 1027.208252
34.38 1025.168335
34.39 1013.986145
34.40 1003.157104
34.41 996.68335
34.42 1002.3255
34.43 1009.449768
34.44 1020.22583
34.45 1027.355103
34.46 1031.355469
34.47 1040.165283
34.48 1040.484375
34.49 1028.674438
34.50 1026.332886
34.51 1029.721313
34.52 1035.638916
34.53 1039.078857
34.54 1033.046753
34.55 1034.908813
34.56 1039.005249
34.57 1041.567871
34.58 1041.213623
34.59 1045.825928
34.60 1046.96814
34.61 1051.145508
34.62 1060.988159
34.63 1073.252563
34.64 1073.354614
34.65 1067.6875
34.66 1063.739746
34.67 1058.776978
34.68 1059.634033
34.69 1058.993042
34.70 1055.987183
34.71 1056.735718
34.72 1060.080933
34.73 1071.496094
34.74 1075.165405
34.75 1067.044678
34.76 1065.958496
34.77 1070.069458
34.78 1069.034912
34.79 1076.401367
34.80 1074.803955
34.81 1073.703979
34.82 1073.823364
34.83 1073.930786
34.84 1080.462646
34.85 1075.791626
34.86 1074.544922
34.87 1068.63623
34.88 1067.206177
34.89 1076.366943
34.90 1088.420776
34.91 1088.16333
34.92 1080.677002
34.93 1074.25708
34.94 1066.668213
34.95 1056.97876
34.96 1056.902466
34.97 1060.881836
34.98 1057.755737
34.99 1049.025757
35.00 1047.091919
35.01 1047.724487
35.02 1048.456665
35.03 1049.88501
35.04 1042.651123
35.05 1034.6604
35.06 1036.564331
35.07 1037.325684
35.08 1034.945679
35.09 1036.225342
35.10 1035.9198
35.11 1035.796387
35.12 1028.06604
35.13 1019.774902
35.14 1018.046082
35.15 1011.281982
35.16 1002.831604
35.17 1002.92627
35.18 1007.321228
35.19 1005.961487
35.20 1008.856567
35.21 1005.784546
35.22 1004.314941
35.23 1011.188354
35.24 1010.338623
35.25 1004.118408
35.26 1003.812683
35.27 994.10907
35.28 982.320251
35.29 973.582764
35.30 965.458984
35.31 961.807007
35.32 955.434998
35.33 953.720032
35.34 961.182312
35.35 956.61731
35.36 953.093018
35.37 953.635803
35.38 952.268188
35.39 948.267273
35.40 942.407898
35.41 934.982666
35.42 937.542114
35.43 945.291321
35.44 946.107422
35.45 937.433655
35.46 930.769897
35.47 931.739563
35.48 932.179749
35.49 934.473572
35.50 937.538757
35.51 935.414429
35.52 931.810852
35.53 923.51593
35.54 909.388
35.55 904.673645
35.56 908.512817
35.57 911.59552
35.58 908.886292
35.59 909.917847
35.60 906.083679
35.61 899.586853
35.62 901.852539
35.63 901.039612
35.64 900.547119
35.65 905.82312
35.66 906.538147
35.67 898.582275
35.68 897.748108
35.69 894.821411
35.70 887.23291
35.71 889.29718
35.72 886.686218
35.73 882.159485
35.74 883.868652
35.75 887.757935
35.76 886.09314
35.77 884.826172
35.78 888.880554
35.79 892.68158
35.80 891.5578
35.81 886.541687
35.82 886.61145
35.83 886.948486
35.84 879.88446
35.85 879.435364
35.86 880.840332
35.87 874.792358
35.88 877.566406
35.89 875.913208
35.90 862.89563
35.91 854.499512
35.92 860.451233
35.93 881.324463
35.94 885.385559
35.95 884.125916
35.96 879.77771
35.97 865.689636
35.98 858.309631
35.99 856.641663
36.00 858.107788
36.01 858.295471
36.02 859.841248
36.03 868.233521
36.04 863.87323
36.05 853.143311
36.06 857.067444
36.07 865.405273
36.08 864.556946
36.09 861.437073
36.10 860.514099
36.11 860.109802
36.12 855.86499
36.13 849.497742
36.14 852.805542
36.15 855.216858
36.16 856.083374
36.17 856.998413
36.18 859.78064
36.19 854.609375
36.20 851.715454
36.21 849.837036
36.22 853.508057
36.23 853.257141
36.24 848.403748
36.25 850.577637
36.26 849.639282
36.27 848.990112
36.28 848.776428
36.29 846.493286
36.30 835.19928
36.31 831.766663
36.32 835.07196
36.33 837.354736
36.34 839.557983
36.35 837.748657
36.36 838.681152
36.37 841.883423
36.38 836.626953
36.39 832.437195
36.40 832.786499
36.41 832.746521
36.42 827.844543
36.43 822.342651
36.44 819.493164
36.45 816.296326
36.46 812.879822
36.47 823.589783
36.48 826.033386
36.49 827.563782
36.50 838.987366
36.51 835.501709
36.52 841.847778
36.53 847.320618
36.54 839.583923
36.55 834.208923
36.56 828.945923
36.57 824.918762
36.58 823.064941
36.59 821.156433
36.60 828.015381
36.61 834.573608
36.62 826.44458
36.63 820.266785
36.64 821.009949
36.65 817.460938
36.66 809.327148
36.67 806.37561
36.68 811.796143
36.69 809.425842
36.70 809.425049
36.71 813.437195
36.72 814.758667
36.73 805.061584
36.74 803.741211
36.75 814.36377
36.76 809.517639
36.77 808.801758
36.78 813.729736
36.79 811.409363
36.80 807.566345
36.81 806.730286
36.82 804.486511
36.83 810.708191
36.84 811.205322
36.85 809.731628
36.86 806.019775
36.87 799.616089
36.88 794.728943
36.89 795.238647
36.90 801.592346
36.91 801.920532
36.92 806.876526
36.93 810.265869
36.94 805.753235
36.95 796.616821
36.96 787.038025
36.97 783.786194
36.98 785.465515
36.99 789.312866
37.00 788.914001
37.01 789.042908
37.02 790.466553
37.03 784.106689
37.04 783.263672
37.05 787.312256
37.06 788.596497
37.07 788.686523
37.08 789.372314
37.09 788.877441
37.10 796.312622
37.11 790.010742
37.12 782.036621
37.13 786.514343
37.14 785.959412
37.15 784.325745
37.16 780.571289
37.17 782.892273
37.18 787.923035
37.19 782.167419
37.20 776.306763
37.21 777.324158
37.22 779.993896
37.23 788.389282
37.24 792.409668
37.25 796.292175
37.26 789.895691
37.27 787.646667
37.28 785.626221
37.29 781.580139
37.30 783.565796
37.31 780.436829
37.32 778.150391
37.33 783.233643
37.34 783.965271
37.35 785.662903
37.36 790.570435
37.37 785.174133
37.38 775.510742
37.39 776.945862
37.40 780.81842
37.41 777.72168
37.42 772.227234
37.43 772.558716
37.44 767.84198
37.45 762.113098
37.46 763.252319
37.47 770.066284
37.48 771.602844
37.49 771.930115
37.50 773.629822
37.51 764.704224
37.52 765.546021
37.53 774.506958
37.54 773.626099
37.55 773.283813
37.56 771.813904
37.57 773.574585
37.58 780.753235
37.59 783.010254
37.60 782.393921
37.61 776.991211
37.62 773.170959
37.63 772.918884
37.64 766.257629
37.65 766.553406
37.66 766.720398
37.67 765.780823
37.68 764.059937
37.69 763.385986
37.70 765.188416
37.71 768.948303
37.72 773.718323
37.73 773.675659
37.74 767.926086
37.75 769.702148
37.76 774.069336
37.77 773.880615
37.78 776.117065
37.79 778.955994
37.80 767.880066
37.81 760.653687
37.82 768.368225
37.83 769.168884
37.84 770.220276
37.85 765.804565
37.86 761.019836
37.87 759.195313
37.88 756.346741
37.89 751.02417
37.90 751.370117
37.91 754.672913
37.92 753.22998
37.93 756.136108
37.94 758.579956
37.95 758.899414
37.96 768.648926
37.97 777.638489
37.98 783.144592
37.99 779.366516
38.00 770.457642
38.01 760.766663
38.02 754.568176
38.03 756.036499
38.04 758.343384
38.05 758.776733
38.06 756.13623
38.07 756.934387
38.08 756.234253
38.09 756.654846
38.10 766.558899
38.11 761.502014
38.12 756.799683
38.13 763.237122
38.14 765.965088
38.15 763.153625
38.16 763.691589
38.17 772.534058
38.18 772.641663
38.19 769.296143
38.20 765.592224
38.21 766.051392
38.22 769.371704
38.23 767.85144
38.24 765.423462
38.25 765.671387
38.26 773.754272
38.27 776.618469
38.28 774.371216
38.29 771.642639
38.30 773.415222
38.31 776.112915
38.32 775.05188
38.33 771.064331
38.34 766.991455
38.35 764.454468
38.36 760.058594
38.37 756.510071
38.38 758.153809
38.39 760.278137
38.40 763.901978
38.41 778.666504
38.42 782.123474
38.43 772.148926
38.44 768.404114
38.45 769.89032
38.46 768.872864
38.47 769.779114
38.48 773.848755
38.49 767.960388
38.50 765.647339
38.51 764.455322
38.52 758.514526
38.53 760.559631
38.54 770.70874
38.55 772.618469
38.56 766.107056
38.57 768.172058
38.58 761.496887
38.59 752.715637
38.60 755.132874
38.61 754.55481
38.62 754.412476
38.63 755.360107
38.64 754.806152
38.65 754.349731
38.66 758.785828
38.67 761.502258
38.68 757.328918
38.69 753.429565
38.70 756.229797
38.71 759.343201
38.72 755.150818
38.73 761.21051
38.74 764.524963
38.75 759.013977
38.76 753.301086
38.77 749.377625
38.78 749.416809
38.79 750.952576
38.80 748.898743
38.81 746.77002
38.82 747.084839
38.83 745.735291
38.84 739.905273
38.85 738.555115
38.86 733.859802
38.87 735.079834
38.88 742.879028
38.89 743.783447
38.90 737.886841
38.91 735.314575
38.92 735.113525
38.93 729.360046
38.94 735.900146
38.95 736.687744
38.96 730.211548
38.97 728.761353
38.98 734.005737
38.99 744.332275
39.00 750.048218
39.01 739.463562
39.02 736.781189
39.03 738.037659
39.04 739.139648
39.05 738.016296
39.06 732.122986
39.07 728.514465
39.08 728.457947
39.09 733.500305
39.10 738.213013
39.11 736.799194
39.12 731.917297
39.13 732.114319
39.14 727.294006
39.15 724.776733
39.16 731.322083
39.17 736.285339
39.18 735.090942
39.19 732.987244
39.20 735.134399
39.21 742.258118
39.22 735.050171
39.23 730.302307
39.24 731.482422
39.25 728.1828
39.26 733.485352
39.27 738.040405
39.28 735.145447
39.29 733.831177
39.30 736.683228
39.31 737.179565
39.32 737.060364
39.33 741.484253
39.34 737.990906
39.35 728.812683
39.36 730.816956
39.37 736.753296
39.38 740.065857
39.39 743.301025
39.40 747.149231
39.41 745.307129
39.42 736.095276
39.43 729.970093
39.44 732.823242
39.45 735.489685
39.46 737.439392
39.47 736.038696
39.48 731.454529
39.49 729.617371
39.50 727.776489
39.51 733.076965
39.52 733.589355
39.53 730.172119
39.54 730.777893
39.55 728.284363
39.56 725.163208
39.57 728.583008
39.58 731.720337
39.59 732.722656
39.60 733.476929
39.61 732.998047
39.62 725.785156
39.63 716.58252
39.64 720.932129
39.65 727.18457
39.66 726.353882
39.67 723.582336
39.68 726.071899
39.69 723.999756
39.70 719.874756
39.71 722.37207
39.72 722.422058
39.73 724.045715
39.74 726.341736
39.75 726.174988
39.76 724.102539
39.77 719.776611
39.78 712.539246
39.79 711.920166
39.80 711.23877
39.81 706.641724
39.82 712.705688
39.83 711.250793
39.84 714.579529
39.85 717.56012
39.86 708.46759
39.87 706.607727
39.88 704.8349
39.89 699.944702
39.90 698.132324
39.91 704.55127
39.92 710.093811
39.93 703.188843
39.94 699.021301
39.95 695.265015
39.96 693.975586
39.97 694.490295
39.98 694.888733
39.99 698.072632
40.00 702.89917
40.01 703.813538
40.02 696.999939
40.03 694.030579
40.04 699.657593
40.05 696.153137
40.06 681.229126
40.07 677.766968
40.08 686.41156
40.09 688.814331
40.10 686.375916
