!@!!GADDS PLOTSO FILE: Chi integration type
!@!!Title/SampleName: ML_MAPbX3_chem15
!@!!User: NREL
!@!!Site: NREL SERF C211; SN 2510
!@!!Frame: C:\frames\rbelisle\MLProject\081922_ML_MAPbX3_chem15_000_000.gfrm
!@!!Wavelengths    1.54184   1.54056   1.54439
!@!!Frame angles: 2Theta: 28.000 Omega: 5.000 Phi: 0.000 Chi: 90.000
!@!!Integration range: 2Theta: 10.000 to 40.000  Gamma: -100.000 to -80.000
!@!!Integration method: bin normalized
!@!N
!@!SS
!@!M
!@!L 0.0 0.0 0.0 0.0
!@!XDegrees
!@!YCounts
10.00 252.290649
10.02 262.446075
10.04 241.894302
10.06 259.479309
10.08 241.723816
10.10 229.832031
10.12 248.911636
10.14 260.878235
10.16 242.366287
10.18 237.991669
10.20 250.919907
10.22 251.387909
10.24 272.095245
10.26 271.716003
10.28 257.359253
10.30 266.894135
10.32 253.690018
10.34 248.654648
10.36 258.521088
10.38 252.40271
10.40 238.018555
10.42 233.199219
10.44 259.743622
10.46 283.002655
10.48 261.567657
10.50 249.228027
10.52 253.254196
10.54 272.236816
10.56 244.529846
10.58 241.060822
10.60 256.657745
10.62 260.098724
10.64 259.906189
10.66 254.86525
10.68 263.358398
10.70 272.90451
10.72 249.143158
10.74 256.523682
10.76 261.506592
10.78 278.535309
10.80 273.354858
10.82 273.24884
10.84 271.153198
10.86 269.830627
10.88 266.648254
10.90 271.094482
10.92 294.456329
10.94 296.156158
10.96 280.780609
10.98 284.045624
11.00 270.491608
11.02 296.850403
11.04 277.185577
11.06 289.18335
11.08 290.266785
11.10 303.319519
11.12 297.051208
11.14 270.489471
11.16 298.309845
11.18 301.906342
11.20 292.395813
11.22 297.203735
11.24 283.284363
11.26 298.023468
11.28 312.077332
11.30 317.638641
11.32 305.34967
11.34 299.788727
11.36 306.445648
11.38 304.239014
11.40 315.180023
11.42 304.329224
11.44 322.649261
11.46 337.177948
11.48 322.176636
11.50 321.415771
11.52 328.109833
11.54 319.481873
11.56 313.442169
11.58 314.117126
11.60 329.374664
11.62 329.474487
11.64 339.677765
11.66 354.323364
11.68 349.258972
11.70 345.361176
11.72 343.125519
11.74 337.319427
11.76 349.131622
11.78 347.878693
11.80 345.015808
11.82 339.831146
11.84 343.769714
11.86 368.998901
11.88 350.956116
11.90 358.375641
11.92 362.748627
11.94 382.177307
11.96 406.004364
11.98 402.598389
12.00 403.106659
12.02 410.069946
12.04 408.679321
12.06 404.353363
12.08 414.056702
12.10 416.193756
12.12 424.040436
12.14 439.49176
12.16 449.403473
12.18 428.343964
12.20 438.431122
12.22 460.898834
12.24 481.962738
12.26 463.932922
12.28 476.494629
12.30 510.744843
12.32 519.45752
12.34 518.633301
12.36 528.02948
12.38 536.91394
12.40 555.873352
12.42 538.962646
12.44 552.754639
12.46 562.813049
12.48 563.177795
12.50 574.515869
12.52 591.062561
12.54 588.315308
12.56 598.90271
12.58 613.110718
12.60 617.066895
12.62 600.801819
12.64 584.748779
12.66 571.919189
12.68 561.776245
12.70 560.644592
12.72 557.387939
12.74 561.620239
12.76 571.002258
12.78 550.757568
12.80 531.818787
12.82 528.463501
12.84 515.996033
12.86 521.019348
12.88 524.855042
12.90 509.663879
12.92 514.596313
12.94 492.210419
12.96 477.43399
12.98 506.280029
13.00 498.802155
13.02 504.651794
13.04 484.307434
13.06 489.384644
13.08 483.154144
13.10 489.559479
13.12 492.943207
13.14 487.039978
13.16 479.752747
13.18 496.776947
13.20 497.26123
13.22 480.223541
13.24 468.281464
13.26 453.44928
13.28 453.543213
13.30 480.402435
13.32 469.215759
13.34 483.875305
13.36 482.431519
13.38 446.350037
13.40 470.043091
13.42 486.042908
13.44 485.620544
13.46 463.019623
13.48 455.933197
13.50 462.557526
13.52 475.950897
13.54 487.15097
13.56 468.231812
13.58 498.408234
13.60 499.628906
13.62 482.490875
13.64 478.579163
13.66 475.679565
13.68 476.454041
13.70 483.924377
13.72 490.651642
13.74 505.849243
13.76 517.600098
13.78 502.74057
13.80 510.089813
13.82 498.544128
13.84 523.060242
13.86 515.402527
13.88 506.171692
13.90 505.949707
13.92 497.934601
13.94 514.761108
13.96 525.115662
13.98 533.815308
14.00 541.942505
14.02 543.691772
14.04 544.767761
14.06 526.493164
14.08 514.263184
14.10 517.246521
14.12 546.851624
14.14 528.107971
14.16 510.684235
14.18 501.080139
14.20 473.868866
14.22 497.125763
14.24 496.44043
14.26 492.116058
14.28 488.389862
14.30 471.881165
14.32 457.285919
14.34 440.675964
14.36 454.340637
14.38 433.686615
14.40 426.351227
14.42 432.405334
14.44 438.942444
14.46 425.929718
14.48 438.992859
14.50 456.96286
14.52 468.480652
14.54 449.003143
14.56 455.86203
14.58 457.433594
14.60 469.148102
14.62 482.551697
14.64 490.013641
14.66 508.425903
14.68 484.563904
14.70 482.929474
14.72 515.483582
14.74 526.955994
14.76 535.981628
14.78 564.492737
14.80 582.633118
14.82 603.095154
14.84 618.190002
14.86 633.705017
14.88 685.463013
14.90 712.128967
14.92 709.77948
14.94 772.186584
14.96 810.314148
14.98 839.111938
15.00 844.584412
15.02 894.355652
15.04 958.895996
15.06 998.6875
15.08 1066.680908
15.10 1125.528564
15.12 1199.658325
15.14 1311.
15.16 1414.81897
15.18 1455.654053
15.20 1563.321899
15.22 1743.735718
15.24 1854.062134
15.26 1968.705322
15.28 2081.782959
15.30 2219.884277
15.32 2387.931641
15.34 2544.887207
15.36 2694.631104
15.38 2829.797852
15.40 2953.437744
15.42 3007.856689
15.44 3013.37085
15.46 2948.261475
15.48 2921.329102
15.50 2831.589355
15.52 2714.129883
15.54 2446.800537
15.56 2367.916016
15.58 2230.543701
15.60 2030.46106
15.62 1874.271851
15.64 1659.625977
15.66 1563.943604
15.68 1413.581787
15.70 1283.713623
15.72 1182.062866
15.74 1115.808594
15.76 1041.320801
15.78 985.365723
15.80 974.628479
15.82 944.131348
15.84 906.656616
15.86 899.934875
15.88 899.45752
15.90 872.671997
15.92 845.827271
15.94 845.850769
15.96 821.302124
15.98 808.07843
16.00 804.747925
16.02 776.685974
16.04 751.465393
16.06 709.407776
16.08 701.228882
16.10 701.833923
16.12 706.018311
16.14 664.528748
16.16 630.318237
16.18 629.702087
16.20 622.93457
16.22 591.050232
16.24 621.603516
16.26 603.129028
16.28 564.717224
16.30 541.788513
16.32 538.883484
16.34 518.893799
16.36 502.075562
16.38 491.912567
16.40 478.081299
16.42 477.046417
16.44 465.425446
16.46 461.988342
16.48 446.381409
16.50 436.623474
16.52 438.930481
16.54 437.68045
16.56 453.371277
16.58 467.706329
16.60 437.872131
16.62 420.812653
16.64 429.923431
16.66 425.256226
16.68 417.442963
16.70 432.826172
16.72 426.782745
16.74 412.855988
16.76 407.953949
16.78 395.626678
16.80 398.984314
16.82 417.296051
16.84 401.505432
16.86 413.628632
16.88 412.522614
16.90 398.653107
16.92 398.726196
16.94 405.852264
16.96 401.82196
16.98 408.053375
17.00 399.631042
17.02 386.803253
17.04 383.029999
17.06 381.644196
17.08 394.256622
17.10 394.639771
17.12 396.476624
17.14 385.184631
17.16 383.274109
17.18 374.934509
17.20 379.950378
17.22 400.731171
17.24 390.542236
17.26 387.999573
17.28 395.420074
17.30 408.041077
17.32 420.685211
17.34 390.379181
17.36 404.215393
17.38 404.783112
17.40 404.922211
17.42 399.428101
17.44 390.104248
17.46 397.46048
17.48 383.767365
17.50 383.596161
17.52 395.078674
17.54 400.174286
17.56 402.441132
17.58 386.29895
17.60 385.51532
17.62 390.487305
17.64 388.64032
17.66 394.529755
17.68 403.718414
17.70 406.962891
17.72 396.616821
17.74 396.670166
17.76 395.580811
17.78 393.679169
17.80 417.705414
17.82 434.916321
17.84 410.962189
17.86 397.190887
17.88 416.120422
17.90 409.879486
17.92 413.415588
17.94 417.463074
17.96 413.662628
17.98 402.111755
18.00 408.779602
18.02 408.527313
18.04 395.138123
18.06 395.927155
18.08 406.439301
18.10 428.209869
18.12 422.81134
18.14 431.698792
18.16 431.704102
18.18 416.087646
18.20 411.874634
18.22 432.684174
18.24 415.102295
18.26 407.24292
18.28 409.28476
18.30 411.529999
18.32 408.28476
18.34 413.414642
18.36 423.099731
18.38 415.56369
18.40 434.711517
18.42 428.104187
18.44 436.442261
18.46 444.220795
18.48 425.05899
18.50 434.925659
18.52 429.930542
18.54 446.589722
18.56 444.206085
18.58 433.781036
18.60 435.03537
18.62 431.629059
18.64 429.856934
18.66 426.199463
18.68 431.435242
18.70 413.011414
18.72 426.94339
18.74 430.5448
18.76 430.94455
18.78 423.09787
18.80 435.712952
18.82 442.34906
18.84 455.444763
18.86 450.102905
18.88 438.535187
18.90 448.396332
18.92 458.58667
18.94 450.330872
18.96 436.586823
18.98 436.222565
19.00 447.5
19.02 468.910583
19.04 454.936584
19.06 448.301208
19.08 462.878906
19.10 455.155548
19.12 457.22641
19.14 449.796631
19.16 442.976837
19.18 447.226898
19.20 469.96582
19.22 476.270081
19.24 465.195709
19.26 464.013397
19.28 449.648499
19.30 465.736542
19.32 466.647949
19.34 452.761108
19.36 442.92511
19.38 440.456329
19.40 444.741272
19.42 470.994873
19.44 487.693756
19.46 483.438324
19.48 458.084381
19.50 460.549622
19.52 485.199463
19.54 473.778992
19.56 454.034302
19.58 450.313507
19.60 475.549469
19.62 478.947357
19.64 482.642151
19.66 479.512726
19.68 477.875061
19.70 509.493622
19.72 521.143921
19.74 497.336273
19.76 473.772339
19.78 460.24765
19.80 467.737488
19.82 498.846802
19.84 493.00238
19.86 494.737335
19.88 490.645294
19.90 492.198547
19.92 491.255615
19.94 507.019257
19.96 501.096741
19.98 479.073364
20.00 464.598389
20.02 498.255096
20.04 501.048126
20.06 489.797455
20.08 499.144165
20.10 499.122375
20.12 488.124725
20.14 482.695984
20.16 493.963226
20.18 496.888794
20.20 488.824402
20.22 480.864746
20.24 491.318817
20.26 517.802856
20.28 527.655823
20.30 512.463989
20.32 498.66333
20.34 490.569916
20.36 492.862061
20.38 499.565369
20.40 505.948181
20.42 524.104126
20.44 505.865326
20.46 478.983917
20.48 499.244446
20.50 510.401459
20.52 535.811951
20.54 514.812195
20.56 522.600647
20.58 516.308899
20.60 517.557312
20.62 507.101532
20.64 496.223022
20.66 498.453888
20.68 501.950043
20.70 505.327972
20.72 520.746033
20.74 526.32843
20.76 524.24054
20.78 530.022522
20.80 507.680328
20.82 521.697083
20.84 543.732788
20.86 531.079651
20.88 527.987305
20.90 535.432312
20.92 528.946655
20.94 523.331848
20.96 531.031799
20.98 518.690857
21.00 517.275757
21.02 524.686584
21.04 533.822815
21.06 523.623047
21.08 500.699615
21.10 530.354797
21.12 540.465881
21.14 550.384277
21.16 552.173462
21.18 562.44458
21.20 555.62854
21.22 553.033569
21.24 547.441162
21.26 564.145935
21.28 558.311035
21.30 548.997131
21.32 551.249329
21.34 555.507813
21.36 574.012451
21.38 557.969055
21.40 548.682129
21.42 532.187378
21.44 535.782166
21.46 553.630249
21.48 560.880981
21.50 553.680298
21.52 554.928345
21.54 566.700928
21.56 554.350647
21.58 559.322754
21.60 537.51001
21.62 543.473999
21.64 556.384766
21.66 573.21814
21.68 569.031677
21.70 555.624329
21.72 555.102539
21.74 567.71936
21.76 570.029602
21.78 578.965881
21.80 571.353271
21.82 562.203796
21.84 581.948792
21.86 589.790039
21.88 585.683472
21.90 572.043518
21.92 576.211975
21.94 575.309998
21.96 567.901489
21.98 577.39679
22.00 580.844727
22.02 589.567444
22.04 598.731812
22.06 575.926208
22.08 565.179749
22.10 577.119507
22.12 562.311279
22.14 575.803589
22.16 573.617737
22.18 572.747131
22.20 590.101379
22.22 601.618958
22.24 583.769653
22.26 574.210022
22.28 564.869019
22.30 582.921265
22.32 582.901184
22.34 586.856079
22.36 583.553955
22.38 586.65979
22.40 595.293152
22.42 590.255859
22.44 599.491028
22.46 611.093689
22.48 627.646973
22.50 597.963318
22.52 597.631042
22.54 607.893677
22.56 608.85614
22.58 596.984436
22.60 596.445313
22.62 572.995728
22.64 581.481689
22.66 589.139099
22.68 610.244019
22.70 609.379761
22.72 579.232422
22.74 572.314392
22.76 587.713318
22.78 604.842529
22.80 610.170654
22.82 616.850281
22.84 608.908813
22.86 614.198425
22.88 587.167236
22.90 588.519104
22.92 602.400085
22.94 599.054199
22.96 600.578552
22.98 598.853516
23.00 611.055725
23.02 608.664185
23.04 607.278625
23.06 608.607422
23.08 629.021973
23.10 627.371399
23.12 627.713989
23.14 601.640747
23.16 596.865173
23.18 611.972656
23.20 610.873474
23.22 608.565369
23.24 599.016663
23.26 604.479065
23.28 600.397583
23.30 615.003601
23.32 615.775818
23.34 602.580933
23.36 599.145447
23.38 597.485107
23.40 609.99823
23.42 624.940735
23.44 624.34845
23.46 633.34967
23.48 630.691467
23.50 616.55481
23.52 620.097839
23.54 625.66803
23.56 617.312805
23.58 620.793518
23.60 640.993896
23.62 626.595947
23.64 628.975098
23.66 629.272156
23.68 639.522095
23.70 633.671448
23.72 618.354248
23.74 630.796021
23.76 628.480042
23.78 641.743652
23.80 629.734375
23.82 620.3573
23.84 643.11322
23.86 640.46759
23.88 638.068787
23.90 638.847412
23.92 626.231018
23.94 617.365295
23.96 617.852478
23.98 635.499207
24.00 641.593201
24.02 636.014893
24.04 629.259583
24.06 630.901123
24.08 641.06366
24.10 631.078735
24.12 630.155518
24.14 629.856262
24.16 669.678467
24.18 654.192139
24.20 624.490601
24.22 607.509766
24.24 612.924194
24.26 634.58606
24.28 636.574707
24.30 639.978149
24.32 638.190735
24.34 641.34198
24.36 638.032288
24.38 620.544006
24.40 629.27301
24.42 631.121216
24.44 617.758301
24.46 614.075378
24.48 612.005188
24.50 614.184753
24.52 623.964478
24.54 633.190735
24.56 622.171509
24.58 627.349121
24.60 615.158203
24.62 622.487305
24.64 628.365234
24.66 634.212158
24.68 631.476501
24.70 636.978577
24.72 642.970947
24.74 640.047852
24.76 628.325806
24.78 610.251587
24.80 619.34082
24.82 625.852539
24.84 626.022766
24.86 630.453064
24.88 649.82959
24.90 648.607605
24.92 650.163635
24.94 648.579285
24.96 646.591858
24.98 635.881042
25.00 643.064758
25.02 631.869446
25.04 628.996887
25.06 636.211304
25.08 647.5979
25.10 651.628479
25.12 633.586548
25.14 648.86676
25.16 661.855896
25.18 641.509277
25.20 624.808655
25.22 623.971252
25.24 629.199463
25.26 628.955322
25.28 641.705505
25.30 658.425964
25.32 647.222473
25.34 640.750977
25.36 645.1203
25.38 641.833496
25.40 645.771912
25.42 623.781982
25.44 631.379333
25.46 635.540222
25.48 650.6073
25.50 625.819458
25.52 627.803589
25.54 638.685364
25.56 660.736633
25.58 655.414429
25.60 648.316467
25.62 645.337646
25.64 637.432312
25.66 649.926514
25.68 624.223328
25.70 621.928711
25.72 612.166382
25.74 627.027954
25.76 634.5755
25.78 642.116577
25.80 641.822266
25.82 640.76709
25.84 649.363281
25.86 631.723633
25.88 651.972107
25.90 660.166931
25.92 663.138123
25.94 641.08905
25.96 647.586365
25.98 644.540039
26.00 633.213379
26.02 630.069824
26.04 650.052063
26.06 645.091125
26.08 626.021362
26.10 625.102722
26.12 631.272644
26.14 637.78656
26.16 621.090942
26.18 643.590637
26.20 635.759277
26.22 644.960999
26.24 637.334534
26.26 638.639832
26.28 643.779785
26.30 638.159668
26.32 655.723999
26.34 635.626465
26.36 630.522705
26.38 620.37561
26.40 620.298767
26.42 612.864197
26.44 658.628906
26.46 652.737366
26.48 642.940125
26.50 623.922852
26.52 625.604126
26.54 637.556702
26.56 653.310425
26.58 629.854797
26.60 628.195618
26.62 620.124756
26.64 618.151245
26.66 644.568848
26.68 628.356262
26.70 592.887695
26.72 617.539001
26.74 637.13092
26.76 627.795532
26.78 648.212769
26.80 658.276794
26.82 639.971802
26.84 626.421692
26.86 640.523743
26.88 640.061279
26.90 646.189575
26.92 643.542969
26.94 652.099915
26.96 645.417175
26.98 639.228333
27.00 631.877808
27.02 638.14624
27.04 648.937805
27.06 633.785095
27.08 617.467834
27.10 635.797363
27.12 622.200012
27.14 615.330261
27.16 620.23877
27.18 631.734741
27.20 629.987732
27.22 625.044434
27.24 622.091064
27.26 626.617676
27.28 624.206299
27.30 643.830383
27.32 650.188538
27.34 634.715027
27.36 627.645996
27.38 631.159363
27.40 620.780945
27.42 634.787537
27.44 630.836853
27.46 620.787964
27.48 618.05188
27.50 642.87384
27.52 623.729004
27.54 604.430054
27.56 596.232727
27.58 608.135559
27.60 612.830872
27.62 617.368347
27.64 635.610229
27.66 646.025391
27.68 631.033997
27.70 617.730042
27.72 620.426025
27.74 615.721741
27.76 632.441284
27.78 650.515747
27.80 667.194458
27.82 648.68634
27.84 639.854004
27.86 632.6521
27.88 649.570923
27.90 638.266907
27.92 638.664185
27.94 643.353088
27.96 658.958252
27.98 655.243591
28.00 646.021301
28.02 636.219482
28.04 655.967896
28.06 658.336548
28.08 657.840393
28.10 656.299072
28.12 676.228027
28.14 682.005981
28.16 678.809692
28.18 677.541016
28.20 647.065796
28.22 652.613098
28.24 672.234619
28.26 691.602051
28.28 693.412781
28.30 697.897949
28.32 679.8797
28.34 692.989929
28.36 708.38031
28.38 713.125793
28.40 703.63147
28.42 696.830322
28.44 691.570679
28.46 693.997742
28.48 688.652222
28.50 671.888367
28.52 677.79834
28.54 670.036072
28.56 645.516602
28.58 651.381226
28.60 674.629395
28.62 673.462585
28.64 676.333069
28.66 644.536804
28.68 633.921082
28.70 630.201416
28.72 642.769653
28.74 635.80957
28.76 625.045776
28.78 616.702454
28.80 608.245483
28.82 628.495911
28.84 644.631653
28.86 650.958923
28.88 631.256104
28.90 637.077087
28.92 636.908691
28.94 630.637878
28.96 622.750244
28.98 633.302429
29.00 636.174194
29.02 628.454163
29.04 641.194153
29.06 635.886597
29.08 640.056946
29.10 642.848999
29.12 643.805847
29.14 642.691406
29.16 631.251099
29.18 631.625977
29.20 639.452942
29.22 635.305969
29.24 643.504028
29.26 638.103149
29.28 630.569702
29.30 642.215088
29.32 657.367432
29.34 639.865906
29.36 634.488586
29.38 625.3125
29.40 636.910889
29.42 659.872253
29.44 674.179504
29.46 638.38623
29.48 638.573669
29.50 666.809021
29.52 663.112
29.54 646.323975
29.56 656.325867
29.58 666.809998
29.60 668.187134
29.62 663.908997
29.64 668.70575
29.66 668.608521
29.68 656.362122
29.70 676.451355
29.72 685.042358
29.74 687.447144
29.76 666.00354
29.78 671.069092
29.80 659.131775
29.82 660.081421
29.84 673.191467
29.86 669.062195
29.88 696.801086
29.90 701.931641
29.92 676.96759
29.94 693.559326
29.96 680.289551
29.98 686.577454
30.00 678.125366
30.02 671.463623
30.04 663.382202
30.06 679.247253
30.08 699.562683
30.10 698.3255
30.12 701.165344
30.14 691.431824
30.16 672.512024
30.18 654.887878
30.20 683.026794
30.22 692.868835
30.24 676.389587
30.26 671.811523
30.28 653.342468
30.30 663.993713
30.32 663.478271
30.34 663.064087
30.36 646.826416
30.38 664.074097
30.40 668.343018
30.42 662.04541
30.44 655.684387
30.46 665.23468
30.48 665.051575
30.50 658.838379
30.52 646.540833
30.54 652.77124
30.56 655.193237
30.58 657.617188
30.60 656.177795
30.62 658.348816
30.64 664.540466
30.66 686.320801
30.68 673.389648
30.70 671.460083
30.72 654.521179
30.74 651.981018
30.76 668.049438
30.78 689.90332
30.80 676.670349
30.82 658.392395
30.84 685.687317
30.86 704.941223
30.88 719.140381
30.90 731.052429
30.92 726.756653
30.94 751.425903
30.96 768.480774
30.98 801.090027
31.00 843.784912
31.02 884.022156
31.04 947.106079
31.06 994.0578
31.08 1011.824829
31.10 1044.794067
31.12 1099.902588
31.14 1184.368408
31.16 1226.322754
31.18 1254.98938
31.20 1276.238403
31.22 1250.856323
31.24 1242.844971
31.26 1232.764404
31.28 1205.128296
31.30 1153.727295
31.32 1103.66687
31.34 1065.015503
31.36 1010.679626
31.38 963.632263
31.40 940.551819
31.42 908.144104
31.44 832.199707
31.46 778.791504
31.48 782.528503
31.50 751.69751
31.52 703.440918
31.54 701.928894
31.56 669.155029
31.58 659.104675
31.60 667.061279
31.62 643.103333
31.64 631.933105
31.66 641.179626
31.68 639.561523
31.70 638.261536
31.72 622.349792
31.74 615.213318
31.76 604.661133
31.78 611.929443
31.80 610.728638
31.82 614.175171
31.84 594.757568
31.86 602.6651
31.88 598.042236
31.90 594.551758
31.92 560.501343
31.94 561.927002
31.96 569.830811
31.98 589.325012
32.00 583.672302
32.02 590.279663
32.04 583.312073
32.06 560.854553
32.08 565.0979
32.10 575.261108
32.12 568.336426
32.14 553.127258
32.16 556.775879
32.18 572.674927
32.20 558.605652
32.22 560.427368
32.24 571.779297
32.26 574.670227
32.28 562.520996
32.30 552.100586
32.32 545.097534
32.34 540.276062
32.36 542.213501
32.38 558.030518
32.40 548.967651
32.42 565.954468
32.44 559.573303
32.46 553.203308
32.48 562.241882
32.50 544.239563
32.52 532.11261
32.54 548.171021
32.56 536.411804
32.58 545.904358
32.60 537.250305
32.62 530.90918
32.64 537.270203
32.66 547.61084
32.68 542.267151
32.70 535.270386
32.72 529.790894
32.74 518.833679
32.76 535.205139
32.78 537.931702
32.80 529.875671
32.82 524.98291
32.84 525.880981
32.86 539.419373
32.88 534.646057
32.90 524.325134
32.92 513.34668
32.94 516.476196
32.96 528.147156
32.98 531.424194
33.00 516.949646
33.02 513.545288
33.04 519.47345
33.06 519.783203
33.08 523.616455
33.10 532.682861
33.12 516.739868
33.14 536.921814
33.16 526.564209
33.18 530.269897
33.20 502.688202
33.22 511.43042
33.24 511.698456
33.26 508.289368
33.28 502.953125
33.30 522.713074
33.32 519.614624
33.34 510.982849
33.36 496.572876
33.38 509.557648
33.40 508.496735
33.42 515.16394
33.44 512.57251
33.46 510.230164
33.48 507.254456
33.50 507.789612
33.52 515.911987
33.54 504.170105
33.56 499.33371
33.58 513.455933
33.60 510.369812
33.62 484.389984
33.64 491.17627
33.66 489.399567
33.68 491.655975
33.70 505.64035
33.72 503.884155
33.74 498.630524
33.76 489.387115
33.78 495.761261
33.80 480.621338
33.82 490.787811
33.84 482.957458
33.86 487.708954
33.88 488.997864
33.90 489.394775
33.92 484.762543
33.94 484.098358
33.96 481.047119
33.98 495.312103
34.00 481.197144
34.02 480.969849
34.04 476.771301
34.06 491.325043
34.08 490.328949
34.10 471.326233
34.12 472.859955
34.14 486.873627
34.16 496.832733
34.18 478.951172
34.20 475.446838
34.22 468.007111
34.24 481.260803
34.26 480.752411
34.28 474.929169
34.30 464.369659
34.32 464.492035
34.34 471.03064
34.36 468.317047
34.38 462.998077
34.40 478.855316
34.42 468.23822
34.44 460.060211
34.46 468.880371
34.48 474.92923
34.50 461.682648
34.52 467.097137
34.54 469.168945
34.56 471.221954
34.58 467.042603
34.60 463.855957
34.62 457.256317
34.64 463.723633
34.66 467.371429
34.68 459.479309
34.70 469.745117
34.72 471.379425
34.74 467.527527
34.76 459.204865
34.78 464.498199
34.80 474.774109
34.82 463.815186
34.84 458.741547
34.86 453.74057
34.88 468.319244
34.90 458.381256
34.92 458.223877
34.94 454.24115
34.96 449.749481
34.98 442.125
35.00 452.316193
35.02 437.289215
35.04 441.22522
35.06 447.790131
35.08 437.704956
35.10 452.290771
35.12 459.514557
35.14 439.7258
35.16 436.639679
35.18 444.047699
35.20 444.0625
35.22 445.117615
35.24 435.513855
35.26 430.445038
35.28 430.186432
35.30 437.9823
35.32 435.475525
35.34 435.257629
35.36 435.619568
35.38 434.069916
35.40 431.542969
35.42 431.132599
35.44 433.372131
35.46 437.014374
35.48 429.891785
35.50 422.54361
35.52 428.439972
35.54 424.168854
35.56 418.003815
35.58 415.685822
35.60 425.124359
35.62 429.519653
35.64 426.860474
35.66 426.974823
35.68 414.623047
35.70 421.043579
35.72 418.429199
35.74 409.968048
35.76 410.85968
35.78 410.813202
35.80 402.33725
35.82 405.891388
35.84 408.512268
35.86 406.641144
35.88 407.676727
35.90 408.796722
35.92 412.528778
35.94 401.196991
35.96 410.630493
35.98 409.776337
36.00 415.660492
36.02 422.863342
36.04 411.470001
36.06 405.951324
36.08 394.857269
36.10 383.740356
36.12 393.364838
36.14 405.606567
36.16 384.732971
36.18 389.320892
36.20 391.800659
36.22 391.514832
36.24 393.802521
36.26 395.569794
36.28 402.599945
36.30 393.878143
36.32 377.485291
36.34 382.677612
36.36 405.883514
36.38 401.313873
36.40 413.689606
36.42 404.303131
36.44 393.732697
36.46 377.216431
36.48 392.839569
36.50 408.121338
36.52 394.496826
36.54 387.249969
36.56 394.097382
36.58 392.50769
36.60 403.213074
36.62 393.041199
36.64 378.286987
36.66 366.75589
36.68 374.053284
36.70 380.807037
36.72 389.835663
36.74 390.134491
36.76 394.333313
36.78 382.124451
36.80 371.465851
36.82 375.319
36.84 387.007996
36.86 395.692444
36.88 385.067322
36.90 376.593048
36.92 372.106018
36.94 379.738342
36.96 376.263458
36.98 368.508484
37.00 377.225891
37.02 373.342438
37.04 376.812134
37.06 370.84317
37.08 372.619049
37.10 372.167633
37.12 353.433258
37.14 356.096008
37.16 354.645721
37.18 358.931244
37.20 364.217957
37.22 363.846161
37.24 374.280212
37.26 370.333862
37.28 361.081421
37.30 376.472626
37.32 358.742767
37.34 339.341583
37.36 345.298798
37.38 352.418549
37.40 362.767883
37.42 356.301544
37.44 354.758545
37.46 349.729736
37.48 364.074219
37.50 368.185852
37.52 364.529999
37.54 349.13501
37.56 360.422852
37.58 366.556885
37.60 352.159271
37.62 349.105042
37.64 369.765625
37.66 353.037109
37.68 355.921417
37.70 355.352142
37.72 351.469818
37.74 353.540161
37.76 364.707092
37.78 362.208527
37.80 358.920258
37.82 351.849274
37.84 349.350311
37.86 361.031708
37.88 355.35907
37.90 359.847931
37.92 348.414948
37.94 338.587158
37.96 338.849792
37.98 346.518066
38.00 366.230286
38.02 363.365082
38.04 355.371094
38.06 359.835297
38.08 354.426849
38.10 365.420471
38.12 362.262115
38.14 352.174622
38.16 347.700958
38.18 349.023438
38.20 342.460236
38.22 335.329529
38.24 331.842224
38.26 338.388702
38.28 333.31424
38.30 347.362701
38.32 359.537842
38.34 361.273499
38.36 364.123627
38.38 349.408417
38.40 349.595276
38.42 369.187469
38.44 361.503326
38.46 341.672607
38.48 327.806549
38.50 344.849091
38.52 347.878082
38.54 329.524567
38.56 347.601746
38.58 351.507629
38.60 349.615295
38.62 342.946075
38.64 329.130798
38.66 329.826355
38.68 334.29776
38.70 342.180084
38.72 345.025665
38.74 343.758667
38.76 344.201843
38.78 335.756226
38.80 332.174194
38.82 330.933868
38.84 329.029266
38.86 335.943085
38.88 331.206635
38.90 343.121368
38.92 351.507996
38.94 349.826355
38.96 343.217957
38.98 334.769348
39.00 336.297485
39.02 327.995392
39.04 329.337708
39.06 334.268738
39.08 328.390106
39.10 336.162048
39.12 331.800781
39.14 323.9216
39.16 332.171143
39.18 329.522583
39.20 335.040863
39.22 344.142822
39.24 334.44101
39.26 324.397766
39.28 335.717682
39.30 329.541992
39.32 329.11554
39.34 316.314056
39.36 327.991943
39.38 330.971649
39.40 338.264923
39.42 332.959351
39.44 335.508148
39.46 340.659271
39.48 337.426514
39.50 324.758636
39.52 316.276855
39.54 330.384247
39.56 331.705353
39.58 333.816956
39.60 331.709869
39.62 323.575317
39.64 319.913788
39.66 323.785583
39.68 315.838593
39.70 317.88739
39.72 328.338562
39.74 337.60434
39.76 328.130646
39.78 324.856476
39.80 317.533569
39.82 309.57666
39.84 321.338745
39.86 323.76062
39.88 317.811127
39.90 321.995941
39.92 317.316772
39.94 319.368286
39.96 316.537628
39.98 327.223633
40.00 332.273285
