!@!!GADDS PLOTSO FILE: Chi integration type
!@!!Title/SampleName: ML_MAPbX3
!@!!User: NREL
!@!!Site: NREL SERF C211; SN 2510
!@!!Frame: 081022_MLProject_000_015.gfrm
!@!!Wavelengths    1.54184   1.54056   1.54439
!@!!Frame angles: 2Theta: 28.000 Omega: 5.000 Phi: 0.000 Chi: 90.000
!@!!Integration range: 2Theta: 10.000 to 40.000  Gamma: -100.000 to -80.000
!@!!Integration method: bin normalized
!@!N
!@!SS
!@!M
!@!L 0.0 0.0 0.0 0.0
!@!XDegrees
!@!YCounts
10.00 211.011505
10.02 208.069107
10.04 238.616638
10.06 228.335358
10.08 217.79335
10.10 207.779221
10.12 228.591949
10.14 235.669968
10.16 200.05571
10.18 215.435577
10.20 226.585709
10.22 205.664429
10.24 222.987167
10.26 225.10704
10.28 224.999481
10.30 220.13588
10.32 242.340698
10.34 211.392975
10.36 204.803741
10.38 194.276077
10.40 199.922363
10.42 210.29187
10.44 217.033859
10.46 234.115982
10.48 224.50946
10.50 261.070618
10.52 244.087784
10.54 225.924683
10.56 220.452072
10.58 215.651001
10.60 225.265656
10.62 231.548264
10.64 232.190414
10.66 238.7146
10.68 227.34462
10.70 230.663544
10.72 236.027298
10.74 255.718323
10.76 256.959167
10.78 233.529755
10.80 245.206039
10.82 240.972641
10.84 238.128647
10.86 238.426971
10.88 235.900101
10.90 221.419968
10.92 242.047058
10.94 219.028992
10.96 239.147736
10.98 223.642899
11.00 242.106842
11.02 238.250168
11.04 214.871796
11.06 228.34375
11.08 222.413208
11.10 264.07074
11.12 251.807983
11.14 235.79361
11.16 236.927155
11.18 224.0522
11.20 227.028595
11.22 249.98851
11.24 251.398331
11.26 248.762054
11.28 255.669998
11.30 254.340027
11.32 254.318405
11.34 232.483994
11.36 257.156799
11.38 263.743011
11.40 257.425842
11.42 238.089569
11.44 240.701706
11.46 266.819092
11.48 262.468475
11.50 267.378845
11.52 282.260071
11.54 286.99469
11.56 270.966156
11.58 258.768799
11.60 264.28241
11.62 267.113831
11.64 264.517303
11.66 248.053741
11.68 266.783356
11.70 261.871918
11.72 273.557251
11.74 265.973969
11.76 261.984192
11.78 277.317078
11.80 301.425537
11.82 300.113525
11.84 297.883484
11.86 292.494415
11.88 279.682892
11.90 285.974518
11.92 295.156281
11.94 299.699005
11.96 303.157074
11.98 320.972565
12.00 321.78952
12.02 321.75827
12.04 338.843781
12.06 358.339874
12.08 334.505249
12.10 345.001617
12.12 350.412811
12.14 358.682495
12.16 378.653564
12.18 396.901428
12.20 409.376617
12.22 413.707031
12.24 421.971649
12.26 444.378693
12.28 459.51001
12.30 486.7771
12.32 530.34967
12.34 540.939087
12.36 534.919739
12.38 593.707886
12.40 595.32373
12.42 606.4245
12.44 642.72937
12.46 646.130859
12.48 665.98584
12.50 718.165039
12.52 733.124512
12.54 725.634216
12.56 748.699402
12.58 768.151978
12.60 772.243896
12.62 771.294067
12.64 756.615234
12.66 710.949097
12.68 694.569336
12.70 668.693909
12.72 624.685547
12.74 570.319946
12.76 540.817383
12.78 535.06311
12.80 513.172852
12.82 457.517609
12.84 430.982941
12.86 389.298981
12.88 398.18576
12.90 386.640625
12.92 352.332947
12.94 349.665314
12.96 358.652802
12.98 360.889496
13.00 334.367889
13.02 323.332977
13.04 331.013397
13.06 321.303314
13.08 312.06897
13.10 324.326202
13.12 323.318298
13.14 311.808563
13.16 332.004456
13.18 351.77124
13.20 343.987122
13.22 320.003174
13.24 325.271057
13.26 312.236481
13.28 312.037079
13.30 307.136139
13.32 341.157959
13.34 330.214478
13.36 315.299896
13.38 326.071625
13.40 324.700592
13.42 342.55069
13.44 339.610626
13.46 347.867584
13.48 352.32309
13.50 340.833771
13.52 337.422241
13.54 376.884308
13.56 378.736969
13.58 356.242676
13.60 370.402191
13.62 393.881531
13.64 394.950653
13.66 394.596588
13.68 430.91806
13.70 452.348175
13.72 459.155914
13.74 482.015472
13.76 500.746735
13.78 517.04718
13.80 518.053772
13.82 535.805664
13.84 560.378174
13.86 609.581238
13.88 640.318481
13.90 677.655212
13.92 671.514954
13.94 689.274902
13.96 743.506226
13.98 790.363159
14.00 854.348816
14.02 920.100098
14.04 941.767334
14.06 975.648193
14.08 1041.549194
14.10 1098.556274
14.12 1112.419922
14.14 1138.681763
14.16 1194.490112
14.18 1217.494019
14.20 1223.7229
14.22 1223.633667
14.24 1170.729248
14.26 1171.032837
14.28 1108.619141
14.30 1043.185181
14.32 998.287781
14.34 910.751038
14.36 874.222351
14.38 786.234985
14.40 704.683289
14.42 658.629761
14.44 609.935913
14.46 604.731506
14.48 569.489685
14.50 540.327026
14.52 529.002502
14.54 508.05188
14.56 470.822693
14.58 444.998566
14.60 469.782501
14.62 484.12561
14.64 461.223969
14.66 443.915497
14.68 426.351166
14.70 438.682465
14.72 462.569366
14.74 476.26532
14.76 469.443237
14.78 483.61499
14.80 487.224152
14.82 491.30188
14.84 507.97641
14.86 524.992188
14.88 521.786987
14.90 515.27594
14.92 547.12915
14.94 585.194031
14.96 597.974792
14.98 613.552795
15.00 660.215271
15.02 690.5979
15.04 711.958496
15.06 711.148499
15.08 742.877686
15.10 762.848267
15.12 816.308228
15.14 854.497925
15.16 881.04834
15.18 914.183655
15.20 947.757446
15.22 991.244019
15.24 988.791687
15.26 986.14032
15.28 982.772095
15.30 993.786255
15.32 1012.768372
15.34 981.550476
15.36 950.893311
15.38 928.865601
15.40 902.79425
15.42 860.997925
15.44 798.907166
15.46 734.264404
15.48 700.310974
15.50 643.749695
15.52 613.642456
15.54 587.434143
15.56 549.964111
15.58 527.621338
15.60 495.248657
15.62 472.827209
15.64 472.255615
15.66 455.595673
15.68 421.127899
15.70 412.410248
15.72 405.569885
15.74 399.964813
15.76 400.442474
15.78 395.041901
15.80 385.862244
15.82 386.289825
15.84 378.008087
15.86 376.381592
15.88 389.570709
15.90 386.230347
15.92 390.205658
15.94 357.423767
15.96 363.363525
15.98 373.930664
16.00 377.0448
16.02 366.526062
16.04 365.877869
16.06 359.973755
16.08 355.038177
16.10 366.066833
16.12 356.500183
16.14 366.375153
16.16 398.770081
16.18 376.816467
16.20 351.927124
16.22 350.237
16.24 362.26474
16.26 367.070587
16.28 364.838074
16.30 369.718719
16.32 353.427185
16.34 355.736938
16.36 367.56012
16.38 376.012604
16.40 374.705597
16.42 353.912872
16.44 367.084564
16.46 379.668182
16.48 360.722473
16.50 358.311493
16.52 351.708588
16.54 363.830353
16.56 362.877228
16.58 361.035095
16.60 366.761505
16.62 354.405762
16.64 365.718231
16.66 373.035522
16.68 360.270172
16.70 348.202332
16.72 363.309021
16.74 368.469757
16.76 363.153351
16.78 379.53714
16.80 379.718353
16.82 380.219147
16.84 356.666504
16.86 362.062408
16.88 353.254303
16.90 358.290955
16.92 378.105103
16.94 378.334839
16.96 372.223022
16.98 370.534302
17.00 378.620026
17.02 367.352234
17.04 355.68277
17.06 378.796783
17.08 382.611176
17.10 372.548828
17.12 368.776062
17.14 362.881775
17.16 378.922974
17.18 381.473053
17.20 381.786652
17.22 372.766693
17.24 375.466858
17.26 373.634888
17.28 389.49234
17.30 375.083557
17.32 391.173645
17.34 401.894745
17.36 384.436798
17.38 391.930084
17.40 388.673645
17.42 378.600006
17.44 360.330963
17.46 372.092712
17.48 400.327576
17.50 384.540375
17.52 361.756653
17.54 381.002136
17.56 371.971771
17.58 372.647064
17.60 377.453827
17.62 381.763245
17.64 401.7677
17.66 416.182251
17.68 410.338562
17.70 406.027954
17.72 387.52597
17.74 391.405975
17.76 406.457214
17.78 393.410858
17.80 387.469208
17.82 391.565674
17.84 401.485077
17.86 400.804688
17.88 399.371887
17.90 399.100586
17.92 392.170044
17.94 391.953857
17.96 383.184021
17.98 395.82251
18.00 403.197815
18.02 401.633453
18.04 380.605835
18.06 392.414307
18.08 402.368835
18.10 426.472717
18.12 431.385162
18.14 436.198212
18.16 421.332214
18.18 402.403961
18.20 395.670288
18.22 415.973419
18.24 436.865509
18.26 417.075684
18.28 440.646576
18.30 426.007538
18.32 440.23645
18.34 439.363373
18.36 436.966095
18.38 425.528656
18.40 428.191986
18.42 422.918518
18.44 413.119415
18.46 412.352112
18.48 405.059235
18.50 424.721619
18.52 448.230865
18.54 437.997559
18.56 427.153046
18.58 421.500854
18.60 420.419128
18.62 433.72644
18.64 442.602417
18.66 438.359192
18.68 429.592255
18.70 437.092499
18.72 430.782471
18.74 427.513458
18.76 434.613861
18.78 447.093079
18.80 464.718964
18.82 460.855469
18.84 460.09436
18.86 462.915131
18.88 448.120575
18.90 443.242523
18.92 456.104828
18.94 449.859467
18.96 434.398224
18.98 437.476593
19.00 451.974335
19.02 460.522675
19.04 450.994537
19.06 443.90036
19.08 439.773376
19.10 452.659882
19.12 464.921417
19.14 458.051788
19.16 452.650848
19.18 473.499969
19.20 477.185181
19.22 483.118225
19.24 472.744598
19.26 467.767273
19.28 485.386414
19.30 471.148895
19.32 457.90036
19.34 475.957947
19.36 473.548706
19.38 481.315063
19.40 469.564117
19.42 496.112946
19.44 476.735992
19.46 446.117889
19.48 472.887115
19.50 497.20871
19.52 495.136963
19.54 485.904907
19.56 482.482483
19.58 476.765991
19.60 469.546509
19.62 476.088348
19.64 481.248016
19.66 482.188385
19.68 476.430542
19.70 491.773163
19.72 487.862244
19.74 494.566742
19.76 512.525391
19.78 491.033508
19.80 503.066315
19.82 510.676025
19.84 517.956482
19.86 520.961609
19.88 510.592743
19.90 508.872345
19.92 507.966034
19.94 504.488647
19.96 510.456451
19.98 509.409515
20.00 505.853943
20.02 519.370361
20.04 535.92804
20.06 538.668762
20.08 531.375854
20.10 532.781006
20.12 542.56488
20.14 566.078308
20.16 544.102966
20.18 533.463379
20.20 514.265564
20.22 515.466003
20.24 535.369019
20.26 537.826721
20.28 539.485962
20.30 535.592468
20.32 527.710876
20.34 546.009521
20.36 548.995605
20.38 531.926758
20.40 525.116211
20.42 546.49469
20.44 539.977173
20.46 534.132751
20.48 541.52063
20.50 522.961121
20.52 508.997498
20.54 516.685242
20.56 519.63446
20.58 530.682312
20.60 514.762024
20.62 526.797974
20.64 534.37146
20.66 533.865417
20.68 528.282776
20.70 534.337585
20.72 547.630798
20.74 532.804504
20.76 526.487732
20.78 539.126831
20.80 533.898438
20.82 536.282532
20.84 550.800781
20.86 552.090576
20.88 535.281555
20.90 530.131531
20.92 545.291382
20.94 545.009521
20.96 553.062195
20.98 559.587402
21.00 551.947083
21.02 556.413452
21.04 555.1698
21.06 553.884277
21.08 562.188782
21.10 569.506897
21.12 543.102051
21.14 560.878235
21.16 568.146179
21.18 554.077881
21.20 556.471069
21.22 558.995056
21.24 561.856018
21.26 556.138672
21.28 552.268188
21.30 571.334534
21.32 589.35083
21.34 589.31427
21.36 599.083496
21.38 596.150818
21.40 570.375366
21.42 554.721191
21.44 566.424072
21.46 563.851257
21.48 588.264465
21.50 585.202698
21.52 596.486633
21.54 604.234619
21.56 561.807678
21.58 563.66272
21.60 571.241211
21.62 572.87207
21.64 587.491821
21.66 598.723328
21.68 596.145935
21.70 586.685181
21.72 593.615601
21.74 601.277283
21.76 619.260315
21.78 594.527039
21.80 595.413391
21.82 601.546997
21.84 606.731262
21.86 625.0578
21.88 611.959961
21.90 602.861877
21.92 602.522095
21.94 617.090393
21.96 599.385986
21.98 595.315796
22.00 615.109497
22.02 626.949341
22.04 616.234497
22.06 603.117981
22.08 599.525269
22.10 603.426758
22.12 626.111084
22.14 631.643005
22.16 614.436462
22.18 608.929321
22.20 618.927856
22.22 620.861145
22.24 627.446228
22.26 626.847656
22.28 610.861694
22.30 617.168518
22.32 631.455139
22.34 626.105774
22.36 599.110596
22.38 604.547791
22.40 615.733765
22.42 602.989868
22.44 614.004883
22.46 610.764404
22.48 627.186462
22.50 633.964355
22.52 643.340454
22.54 633.056396
22.56 633.228516
22.58 613.925354
22.60 627.340149
22.62 614.018188
22.64 616.436035
22.66 634.948486
22.68 636.80603
22.70 619.1026
22.72 623.00647
22.74 623.991272
22.76 618.921021
22.78 621.31073
22.80 626.918274
22.82 648.683472
22.84 662.352966
22.86 632.33374
22.88 642.744202
22.90 643.884155
22.92 645.648865
22.94 659.838257
22.96 657.018738
22.98 640.53241
23.00 642.2146
23.02 652.073975
23.04 646.869629
23.06 644.83429
23.08 630.84552
23.10 634.521179
23.12 639.149536
23.14 630.370056
23.16 635.563354
23.18 674.346863
23.20 675.663574
23.22 657.013367
23.24 646.909241
23.26 635.487671
23.28 645.458191
23.30 646.378479
23.32 646.626953
23.34 640.185852
23.36 641.610168
23.38 629.031189
23.40 633.201538
23.42 645.497437
23.44 647.422974
23.46 646.089966
23.48 662.360596
23.50 658.399719
23.52 653.950256
23.54 670.585144
23.56 655.587524
23.58 654.782715
23.60 637.864746
23.62 641.074036
23.64 649.741211
23.66 655.904907
23.68 659.33075
23.70 637.698364
23.72 623.576233
23.74 626.556335
23.76 635.7724
23.78 667.858704
23.80 653.827576
23.82 623.576294
23.84 650.01355
23.86 649.222107
23.88 670.622742
23.90 669.96344
23.92 656.43396
23.94 654.395569
23.96 683.941223
23.98 665.565796
24.00 651.780029
24.02 662.336792
24.04 663.104675
24.06 665.140625
24.08 666.290405
24.10 657.91748
24.12 654.30188
24.14 668.919922
24.16 670.75946
24.18 667.280151
24.20 640.355713
24.22 642.299866
24.24 642.534241
24.26 666.866272
24.28 695.221741
24.30 682.966309
24.32 682.727539
24.34 681.234558
24.36 679.455566
24.38 669.955688
24.40 654.469849
24.42 664.706726
24.44 666.360779
24.46 683.105408
24.48 691.084412
24.50 691.232483
24.52 667.92157
24.54 658.157959
24.56 661.04248
24.58 678.080383
24.60 665.577942
24.62 669.182251
24.64 659.995911
24.66 649.322998
24.68 643.703613
24.70 670.804382
24.72 676.894714
24.74 683.263977
24.76 683.769165
24.78 681.561707
24.80 683.987976
24.82 657.64917
24.84 668.814941
24.86 669.894592
24.88 675.958313
24.90 681.566956
24.92 681.510925
24.94 693.193604
24.96 689.605835
24.98 686.750793
25.00 689.979919
25.02 689.332642
25.04 686.987305
25.06 689.383789
25.08 685.611389
25.10 702.373413
25.12 706.170593
25.14 685.971924
25.16 680.566772
25.18 683.396667
25.20 668.434326
25.22 667.538025
25.24 684.757751
25.26 702.992493
25.28 677.042969
25.30 659.49585
25.32 686.408325
25.34 678.528809
25.36 664.88446
25.38 687.606384
25.40 690.339844
25.42 699.860229
25.44 697.824402
25.46 697.018433
25.48 688.674377
25.50 687.348999
25.52 681.883423
25.54 696.514465
25.56 686.586975
25.58 701.553162
25.60 698.035034
25.62 680.787903
25.64 674.161865
25.66 667.895386
25.68 667.625977
25.70 653.329468
25.72 647.380249
25.74 680.235596
25.76 699.159546
25.78 688.711365
25.80 680.767944
25.82 670.753967
25.84 663.958618
25.86 676.347961
25.88 652.125854
25.90 678.048096
25.92 679.313599
25.94 697.424866
25.96 679.848938
25.98 676.822693
26.00 671.276306
26.02 666.744202
26.04 676.377563
26.06 656.352417
26.08 644.604431
26.10 650.151978
26.12 671.507263
26.14 669.200623
26.16 653.901489
26.18 660.035522
26.20 686.858032
26.22 680.640564
26.24 676.355469
26.26 689.535156
26.28 679.382507
26.30 669.735901
26.32 671.324341
26.34 672.366089
26.36 692.038879
26.38 674.289917
26.40 660.726501
26.42 678.247742
26.44 672.774597
26.46 671.581665
26.48 669.291748
26.50 647.83844
26.52 671.84906
26.54 672.94458
26.56 685.34491
26.58 652.534851
26.60 645.206238
26.62 655.0896
26.64 663.330566
26.66 676.24408
26.68 657.573853
26.70 648.156738
26.72 642.72998
26.74 637.981262
26.76 652.613159
26.78 637.920105
26.80 656.01886
26.82 656.970337
26.84 668.612915
26.86 668.148071
26.88 663.64386
26.90 653.444153
26.92 655.413696
26.94 657.200806
26.96 656.897766
26.98 671.651062
27.00 661.814453
27.02 638.453186
27.04 634.354248
27.06 649.01825
27.08 655.801392
27.10 657.812866
27.12 650.080994
27.14 648.360779
27.16 655.07782
27.18 655.303528
27.20 643.580505
27.22 641.193176
27.24 644.322021
27.26 636.082642
27.28 658.791809
27.30 671.701843
27.32 671.918518
27.34 647.302368
27.36 646.333679
27.38 634.255859
27.40 645.763733
27.42 635.338623
27.44 627.662903
27.46 649.690369
27.48 640.012878
27.50 645.082886
27.52 651.735291
27.54 658.85083
27.56 648.384155
27.58 642.831787
27.60 654.803894
27.62 663.883606
27.64 639.820374
27.66 660.062866
27.68 683.146423
27.70 686.348877
27.72 666.9823
27.74 665.178467
27.76 667.267151
27.78 654.014221
27.80 688.512634
27.82 679.526123
27.84 689.903748
27.86 677.745789
27.88 653.415283
27.90 677.969482
27.92 674.962402
27.94 653.681213
27.96 644.993347
27.98 653.768311
28.00 668.007141
28.02 677.840088
28.04 670.65979
28.06 663.096985
28.08 668.112854
28.10 667.71875
28.12 665.546082
28.14 689.952209
28.16 724.138367
28.18 701.263245
28.20 686.840942
28.22 704.599548
28.24 704.169434
28.26 707.874756
28.28 710.906189
28.30 720.73822
28.32 735.559937
28.34 760.706421
28.36 785.478821
28.38 793.356323
28.40 822.233032
28.42 843.980103
28.44 899.996216
28.46 905.826355
28.48 960.378052
28.50 981.255493
28.52 1004.28894
28.54 1059.161011
28.56 1096.656738
28.58 1124.803589
28.60 1167.680176
28.62 1193.289917
28.64 1193.631958
28.66 1175.9823
28.68 1148.822998
28.70 1159.773071
28.72 1160.11145
28.74 1131.03479
28.76 1081.523193
28.78 1029.168701
28.80 960.042297
28.82 942.916138
28.84 906.274353
28.86 873.058411
28.88 847.538635
28.90 807.949524
28.92 807.509827
28.94 784.772461
28.96 771.536926
28.98 754.510559
29.00 750.778992
29.02 735.954285
29.04 735.364197
29.06 714.574524
29.08 697.454041
29.10 701.683228
29.12 694.221375
29.14 671.567932
29.16 687.233704
29.18 676.990356
29.20 667.272827
29.22 678.562256
29.24 661.57782
29.26 660.164001
29.28 667.060303
29.30 673.319336
29.32 678.055969
29.34 654.028137
29.36 673.446838
29.38 670.985291
29.40 666.592468
29.42 654.361511
29.44 653.191589
29.46 679.13562
29.48 665.794617
29.50 657.811462
29.52 659.042175
29.54 644.635376
29.56 644.353088
29.58 643.897034
29.60 638.859802
29.62 626.723572
29.64 635.168274
29.66 645.437561
29.68 647.486206
29.70 629.674744
29.72 632.071838
29.74 630.744934
29.76 647.501953
29.78 666.601074
29.80 646.678467
29.82 630.438416
29.84 631.458374
29.86 639.652527
29.88 631.163635
29.90 632.246582
29.92 628.332581
29.94 634.257751
29.96 632.789673
29.98 629.004395
30.00 635.270691
30.02 626.147644
30.04 621.156128
30.06 620.659912
30.08 631.233154
30.10 654.711426
30.12 637.62915
30.14 620.954285
30.16 616.09552
30.18 631.43927
30.20 623.503479
30.22 630.793091
30.24 642.536011
30.26 642.179688
30.28 652.441467
30.30 645.853088
30.32 640.41925
30.34 628.049072
30.36 643.939209
30.38 644.302063
30.40 639.641968
30.42 631.515442
30.44 627.113159
30.46 646.101807
30.48 648.620728
30.50 656.094727
30.52 658.230347
30.54 663.559875
30.56 646.871216
30.58 651.932312
30.60 679.560486
30.62 705.547974
30.64 703.974426
30.66 684.714417
30.68 710.246887
30.70 737.821167
30.72 740.861084
30.74 755.302917
30.76 747.939636
30.78 752.306641
30.80 761.146667
30.82 785.129211
30.84 792.139099
30.86 806.99408
30.88 801.468689
30.90 816.707886
30.92 811.30957
30.94 814.673096
30.96 807.506836
30.98 805.78009
31.00 780.528198
31.02 764.113464
31.04 771.929443
31.06 767.515503
31.08 750.578003
31.10 730.934082
31.12 709.695007
31.14 714.124878
31.16 718.625854
31.18 701.125671
31.20 687.98175
31.22 665.718872
31.24 646.580139
31.26 641.190491
31.28 646.778809
31.30 656.628235
31.32 654.51416
31.34 642.487061
31.36 629.344055
31.38 605.830994
31.40 609.416931
31.42 609.265503
31.44 622.519226
31.46 619.179199
31.48 624.921631
31.50 615.865906
31.52 615.78656
31.54 601.42926
31.56 600.620667
31.58 598.730896
31.60 598.957947
31.62 606.595764
31.64 610.410156
31.66 601.529846
31.68 611.685242
31.70 607.595825
31.72 594.191101
31.74 595.108093
31.76 594.488098
31.78 583.513611
31.80 593.207581
31.82 596.178162
31.84 601.193542
31.86 595.437439
31.88 596.671021
31.90 615.423218
31.92 621.089966
31.94 607.733765
31.96 592.359619
31.98 597.223511
32.00 614.991699
32.02 617.99054
32.04 630.246338
32.06 631.445129
32.08 639.055603
32.10 632.137024
32.12 632.826599
32.14 631.989319
32.16 622.350037
32.18 621.423828
32.20 633.362732
32.22 635.980652
32.24 624.700623
32.26 598.298584
32.28 598.5849
32.30 591.192688
32.32 599.534729
32.34 600.258362
32.36 590.625488
32.38 593.96344
32.40 571.254517
32.42 577.821045
32.44 571.48822
32.46 577.160706
32.48 584.320374
32.50 578.258606
32.52 551.740845
32.54 550.85968
32.56 559.740112
32.58 547.238647
32.60 542.795105
32.62 560.381226
32.64 569.022766
32.66 557.822266
32.68 543.182922
32.70 560.008911
32.72 576.792236
32.74 560.97998
32.76 550.012085
32.78 539.278564
32.80 530.422241
32.82 538.63678
32.84 545.64325
32.86 556.749268
32.88 553.478394
32.90 559.499146
32.92 549.155884
32.94 548.633484
32.96 540.361389
32.98 548.28418
33.00 546.336975
33.02 533.463989
33.04 537.605591
33.06 540.387207
33.08 527.974731
33.10 536.282715
33.12 533.012207
33.14 528.310913
33.16 538.723389
33.18 516.028748
33.20 526.835999
33.22 536.958557
33.24 529.303772
33.26 526.533752
33.28 542.291443
33.30 558.37207
33.32 543.324036
33.34 515.346619
33.36 523.647339
33.38 524.022156
33.40 543.162231
33.42 540.576172
33.44 524.94342
33.46 521.097412
33.48 522.94342
33.50 520.157593
33.52 511.302582
33.54 508.060516
33.56 515.030945
33.58 517.469666
33.60 524.887146
33.62 517.288452
33.64 515.299255
33.66 512.779419
33.68 510.808044
33.70 519.056519
33.72 519.055359
33.74 501.075928
33.76 501.943604
33.78 507.1297
33.80 509.038208
33.82 506.39624
33.84 516.212769
33.86 503.466248
33.88 501.577148
33.90 505.165894
33.92 505.079529
33.94 490.826111
33.96 510.90332
33.98 490.351959
34.00 490.918335
34.02 492.553436
34.04 499.359985
34.06 494.800934
34.08 493.116913
34.10 484.229279
34.12 485.490997
34.14 496.373138
34.16 505.626129
34.18 501.317261
34.20 494.24469
34.22 488.141602
34.24 491.983612
34.26 503.474518
34.28 491.654541
34.30 497.193695
34.32 493.920166
34.34 497.03064
34.36 495.448944
34.38 496.369385
34.40 486.240112
34.42 501.552216
34.44 501.468811
34.46 482.646515
34.48 484.769806
34.50 503.599457
34.52 508.298218
34.54 493.865295
34.56 488.60907
34.58 486.081512
34.60 492.98233
34.62 497.868927
34.64 490.605194
34.66 488.598846
34.68 494.127808
34.70 505.625458
34.72 491.727936
34.74 484.80072
34.76 468.420471
34.78 473.750488
34.80 487.1716
34.82 491.423676
34.84 475.831818
34.86 475.497711
34.88 474.870911
34.90 468.973633
34.92 468.158844
34.94 478.524628
34.96 467.237427
34.98 465.284241
35.00 478.585114
35.02 469.928101
35.04 463.804718
35.06 451.124329
35.08 470.824646
35.10 474.959778
35.12 463.942474
35.14 453.727478
35.16 455.903412
35.18 466.417786
35.20 477.459778
35.22 471.216339
35.24 476.56955
35.26 470.987305
35.28 452.289246
35.30 462.127075
35.32 459.546906
35.34 443.145752
35.36 447.947845
35.38 449.136353
35.40 451.925354
35.42 456.091248
35.44 460.452179
35.46 445.23172
35.48 448.129486
35.50 442.535187
35.52 450.636902
35.54 449.951111
35.56 444.93042
35.58 448.400879
35.60 451.535156
35.62 435.610962
35.64 428.543945
35.66 441.65918
35.68 433.294861
35.70 433.423462
35.72 444.725891
35.74 448.85675
35.76 438.817078
35.78 438.295624
35.80 429.544403
35.82 438.727844
35.84 421.220856
35.86 436.825928
35.88 424.049164
35.90 430.248383
35.92 418.914215
35.94 428.270874
35.96 435.927856
35.98 433.364563
36.00 423.475464
36.02 416.935272
36.04 406.940338
36.06 429.66861
36.08 437.407776
36.10 420.392578
36.12 428.81012
36.14 419.557373
36.16 412.033569
36.18 412.817596
36.20 415.205933
36.22 414.621094
36.24 414.337341
36.26 414.858551
36.28 405.79068
36.30 414.64917
36.32 415.839447
36.34 413.542938
36.36 409.037231
36.38 414.615356
36.40 417.343353
36.42 411.481781
36.44 408.648865
36.46 402.92038
36.48 405.182129
36.50 415.689606
36.52 416.204681
36.54 410.795685
36.56 405.553253
36.58 413.908325
36.60 394.981018
36.62 400.515656
36.64 416.78717
36.66 410.70047
36.68 410.330353
36.70 411.28244
36.72 413.375732
36.74 414.618134
36.76 408.361664
36.78 392.679535
36.80 389.882568
36.82 395.486481
36.84 401.709259
36.86 393.919617
36.88 402.205078
36.90 395.129028
36.92 389.624908
36.94 397.385803
36.96 394.047333
36.98 390.403931
37.00 385.635529
37.02 388.66217
37.04 379.376038
37.06 390.606995
37.08 394.333069
37.10 377.381897
37.12 385.336487
37.14 379.386169
37.16 377.427673
37.18 377.935699
37.20 378.425415
37.22 376.52301
37.24 379.733307
37.26 383.659485
37.28 389.34259
37.30 393.662109
37.32 399.890991
37.34 397.886749
37.36 387.06665
37.38 387.815491
37.40 381.317322
37.42 380.825867
37.44 381.736725
37.46 374.334106
37.48 372.80719
37.50 369.55777
37.52 376.115967
37.54 373.485077
37.56 378.093903
37.58 384.958984
37.60 376.719635
37.62 365.825806
37.64 374.358459
37.66 368.786957
37.68 364.709381
37.70 368.344971
37.72 378.347717
37.74 381.585022
37.76 390.412689
37.78 376.310669
37.80 367.222473
37.82 368.346924
37.84 386.35202
37.86 375.845856
37.88 377.076355
37.90 378.964172
37.92 374.130371
37.94 376.180939
37.96 375.171143
37.98 373.757874
38.00 372.673737
38.02 376.042236
38.04 381.177917
38.06 376.092468
38.08 384.6875
38.10 371.889282
38.12 363.615601
38.14 372.928955
38.16 375.633728
38.18 377.010193
38.20 378.01239
38.22 371.335632
38.24 363.665771
38.26 366.909546
38.28 378.987854
38.30 384.243561
38.32 377.84967
38.34 376.075745
38.36 385.712006
38.38 373.961365
38.40 380.458893
38.42 390.888092
38.44 396.398407
38.46 391.457611
38.48 390.450073
38.50 384.18158
38.52 391.030609
38.54 393.673645
38.56 395.430573
38.58 395.676453
38.60 384.337219
38.62 375.614258
38.64 381.411774
38.66 377.131531
38.68 375.437073
38.70 380.899567
38.72 379.506134
38.74 375.814484
38.76 365.47702
38.78 360.662872
38.80 359.308563
38.82 370.454681
38.84 357.694305
38.86 367.035858
38.88 364.036652
38.90 363.550446
38.92 363.34021
38.94 355.602631
38.96 359.611847
38.98 360.296539
39.00 356.859497
39.02 352.038025
39.04 357.147034
39.06 361.195984
39.08 362.713959
39.10 362.258362
39.12 366.329651
39.14 359.945435
39.16 354.514008
39.18 351.776703
39.20 356.455963
39.22 355.798798
39.24 350.684387
39.26 358.426971
39.28 360.573853
39.30 359.963959
39.32 356.834656
39.34 361.540283
39.36 376.842529
39.38 352.78064
39.40 359.457794
39.42 362.845062
39.44 351.879456
39.46 351.58313
39.48 356.541473
39.50 355.889709
39.52 368.725891
39.54 359.42041
39.56 352.27713
39.58 354.104187
39.60 362.175232
39.62 364.807983
39.64 347.033081
39.66 355.194153
39.68 355.512756
39.70 357.229889
39.72 349.614807
39.74 345.144623
39.76 345.151306
39.78 336.374451
39.80 343.768066
39.82 344.7883
39.84 348.256378
39.86 346.498871
39.88 356.008423
39.90 352.234467
39.92 359.091156
39.94 359.919708
39.96 339.40332
39.98 351.545227
40.00 340.260406
