!@!!GADDS PLOTSO FILE: Chi integration type
!@!!Title/SampleName: ML_MAPbX3
!@!!User: NREL
!@!!Site: NREL SERF C211; SN 2510
!@!!Frame: 081022_MLProject_000_011.gfrm
!@!!Wavelengths    1.54184   1.54056   1.54439
!@!!Frame angles: 2Theta: 28.000 Omega: 5.000 Phi: 0.000 Chi: 90.000
!@!!Integration range: 2Theta: 10.000 to 40.000  Gamma: -100.000 to -80.000
!@!!Integration method: bin normalized
!@!N
!@!SS
!@!M
!@!L 0.0 0.0 0.0 0.0
!@!XDegrees
!@!YCounts
10.00 223.046478
10.02 203.214645
10.04 216.103668
10.06 196.498276
10.08 178.382263
10.10 179.173492
10.12 205.906647
10.14 191.427917
10.16 204.036697
10.18 225.045364
10.20 221.20932
10.22 204.27211
10.24 209.468475
10.26 227.827911
10.28 214.67981
10.30 209.236282
10.32 211.601715
10.34 216.264572
10.36 211.277863
10.38 189.854538
10.40 201.344147
10.42 222.11644
10.44 234.285187
10.46 236.223358
10.48 242.941452
10.50 230.390182
10.52 219.142899
10.54 236.938889
10.56 252.5392
10.58 216.408447
10.60 218.617325
10.62 216.858047
10.64 236.376144
10.66 231.153168
10.68 222.720291
10.70 227.619141
10.72 214.281281
10.74 223.364731
10.76 240.980606
10.78 230.465607
10.80 238.721039
10.82 243.69635
10.84 254.947189
10.86 233.767853
10.88 221.211761
10.90 215.326721
10.92 230.081512
10.94 236.51236
10.96 234.421371
10.98 237.120712
11.00 224.048096
11.02 235.974121
11.04 240.633392
11.06 216.189713
11.08 229.167114
11.10 244.998199
11.12 236.521332
11.14 234.131332
11.16 241.018158
11.18 235.572311
11.20 231.977478
11.22 227.748474
11.24 229.620468
11.26 223.065445
11.28 242.963348
11.30 242.152786
11.32 223.570709
11.34 241.685425
11.36 251.937088
11.38 217.618423
11.40 236.938126
11.42 239.527359
11.44 249.461334
11.46 265.492157
11.48 278.500763
11.50 251.460602
11.52 248.860535
11.54 264.265442
11.56 255.303818
11.58 238.123276
11.60 256.680878
11.62 273.981354
11.64 258.613739
11.66 257.313507
11.68 250.875351
11.70 255.050842
11.72 254.564957
11.74 235.045364
11.76 238.611328
11.78 241.414032
11.80 246.226532
11.82 262.135162
11.84 274.002167
11.86 264.320038
11.88 251.757095
11.90 245.392822
11.92 262.169739
11.94 253.548615
11.96 258.884674
11.98 271.161804
12.00 239.859482
12.02 234.943115
12.04 261.051544
12.06 241.294571
12.08 245.612381
12.10 243.030197
12.12 270.15274
12.14 258.181122
12.16 256.212402
12.18 253.594727
12.20 249.110779
12.22 268.578461
12.24 281.684753
12.26 268.86969
12.28 245.556839
12.30 252.425873
12.32 262.905029
12.34 264.305389
12.36 259.714264
12.38 279.427979
12.40 275.666962
12.42 268.391144
12.44 276.389252
12.46 276.174042
12.48 260.308594
12.50 258.736908
12.52 275.067047
12.54 275.405396
12.56 272.871246
12.58 297.761658
12.60 283.108856
12.62 276.989288
12.64 299.072479
12.66 284.936432
12.68 262.546661
12.70 259.561279
12.72 274.670349
12.74 273.089722
12.76 271.013519
12.78 255.862289
12.80 245.197601
12.82 266.257446
12.84 290.749634
12.86 275.882446
12.88 282.866699
12.90 291.457153
12.92 275.864746
12.94 269.882446
12.96 291.266388
12.98 292.831024
13.00 287.521912
13.02 293.911255
13.04 300.538879
13.06 288.466522
13.08 267.945526
13.10 288.844025
13.12 280.088409
13.14 270.345612
13.16 281.477509
13.18 285.625519
13.20 281.238312
13.22 289.966156
13.24 280.125427
13.26 291.310242
13.28 299.451447
13.30 283.893402
13.32 284.693756
13.34 300.497406
13.36 289.293701
13.38 278.157288
13.40 282.665558
13.42 304.392242
13.44 308.006042
13.46 306.197479
13.48 310.611145
13.50 310.222809
13.52 286.5961
13.54 290.385223
13.56 323.189178
13.58 312.748566
13.60 309.759888
13.62 316.66275
13.64 309.562256
13.66 301.247803
13.68 297.339661
13.70 305.346588
13.72 305.879547
13.74 324.422577
13.76 323.665894
13.78 325.328461
13.80 323.522064
13.82 312.792999
13.84 326.300659
13.86 315.966949
13.88 317.171906
13.90 311.61319
13.92 310.478455
13.94 315.222656
13.96 317.468933
13.98 328.541992
14.00 332.286682
14.02 322.339569
14.04 313.263794
14.06 302.830719
14.08 314.704346
14.10 318.460754
14.12 340.873291
14.14 340.141144
14.16 322.468445
14.18 305.393341
14.20 319.841278
14.22 331.665222
14.24 320.005188
14.26 324.601593
14.28 339.569977
14.30 321.196167
14.32 347.475281
14.34 364.743744
14.36 357.653442
14.38 356.237091
14.40 376.889893
14.42 386.54776
14.44 399.733185
14.46 403.96875
14.48 426.674408
14.50 424.496002
14.52 445.769226
14.54 453.462006
14.56 464.7388
14.58 494.156647
14.60 510.094055
14.62 548.168945
14.64 586.012024
14.66 624.812927
14.68 637.136902
14.70 644.642578
14.72 701.116516
14.74 751.575439
14.76 820.036865
14.78 841.839661
14.80 893.336609
14.82 977.087891
14.84 1055.084595
14.86 1109.269409
14.88 1172.994507
14.90 1295.543701
14.92 1388.893311
14.94 1463.272339
14.96 1574.57019
14.98 1712.497314
15.00 1798.590942
15.02 1901.524414
15.04 2038.304565
15.06 2186.572998
15.08 2299.908203
15.10 2396.182861
15.12 2468.81665
15.14 2482.612061
15.16 2498.898193
15.18 2451.781006
15.20 2378.355713
15.22 2308.53125
15.24 2163.726318
15.26 1966.554443
15.28 1752.490479
15.30 1555.058716
15.32 1409.780151
15.34 1207.963013
15.36 1068.146118
15.38 940.886902
15.40 848.605225
15.42 747.700745
15.44 675.524963
15.46 622.81134
15.48 583.786804
15.50 527.935425
15.52 482.364929
15.54 468.573517
15.56 473.330292
15.58 458.219574
15.60 422.980042
15.62 427.775543
15.64 439.054413
15.66 442.330841
15.68 427.000275
15.70 412.070068
15.72 405.987915
15.74 405.908539
15.76 397.985748
15.78 400.494598
15.80 397.507782
15.82 389.552612
15.84 365.083923
15.86 377.584564
15.88 386.652435
15.90 375.284729
15.92 376.154602
15.94 371.773499
15.96 388.019775
15.98 381.384796
16.00 369.78479
16.02 369.500244
16.04 366.843964
16.06 371.344391
16.08 353.274506
16.10 355.865143
16.12 355.145264
16.14 367.512939
16.16 367.312378
16.18 363.62796
16.20 354.090363
16.22 334.921112
16.24 361.277069
16.26 365.810547
16.28 360.621674
16.30 366.120056
16.32 363.417542
16.34 363.4935
16.36 367.690643
16.38 357.606537
16.40 357.393951
16.42 375.321442
16.44 359.552551
16.46 353.547913
16.48 345.562408
16.50 358.486908
16.52 341.155029
16.54 362.087006
16.56 366.961975
16.58 357.430511
16.60 356.995117
16.62 360.398529
16.64 385.966125
16.66 365.576508
16.68 360.995026
16.70 386.846924
16.72 379.911804
16.74 360.256042
16.76 352.449799
16.78 351.623993
16.80 355.581848
16.82 367.393951
16.84 364.606049
16.86 393.047974
16.88 391.456573
16.90 368.02359
16.92 373.343719
16.94 363.383698
16.96 363.996765
16.98 364.594727
17.00 377.797852
17.02 376.534698
17.04 363.658722
17.06 365.912445
17.08 382.965302
17.10 380.439758
17.12 363.488281
17.14 359.854218
17.16 381.754181
17.18 396.21402
17.20 388.179474
17.22 383.591949
17.24 374.184326
17.26 371.394806
17.28 382.238495
17.30 387.724396
17.32 402.796875
17.34 406.335785
17.36 399.013641
17.38 396.88031
17.40 403.864807
17.42 402.6427
17.44 411.372314
17.46 395.869598
17.48 374.295593
17.50 382.802246
17.52 399.209259
17.54 408.550323
17.56 400.909302
17.58 390.872406
17.60 391.21756
17.62 385.243103
17.64 389.643311
17.66 383.35553
17.68 387.551117
17.70 407.761963
17.72 389.650452
17.74 397.902069
17.76 408.849365
17.78 391.780243
17.80 385.357758
17.82 407.802032
17.84 417.257172
17.86 406.164703
17.88 397.317322
17.90 413.210968
17.92 409.536224
17.94 407.858215
17.96 412.278015
17.98 416.122406
18.00 416.905884
18.02 425.894226
18.04 413.263519
18.06 399.641266
18.08 408.554749
18.10 415.309174
18.12 441.219879
18.14 433.106873
18.16 413.09845
18.18 419.790924
18.20 424.30722
18.22 431.356506
18.24 417.291718
18.26 427.754089
18.28 417.051666
18.30 429.058533
18.32 425.122833
18.34 435.575836
18.36 437.129456
18.38 430.377441
18.40 433.806702
18.42 441.89563
18.44 430.293701
18.46 432.307922
18.48 439.429016
18.50 449.922424
18.52 442.411041
18.54 435.601501
18.56 438.382416
18.58 451.685364
18.60 446.375153
18.62 439.30899
18.64 436.253418
18.66 437.30246
18.68 450.020935
18.70 453.005371
18.72 441.789795
18.74 442.019562
18.76 436.566284
18.78 448.439667
18.80 444.525513
18.82 459.943054
18.84 453.106659
18.86 471.78949
18.88 470.152069
18.90 461.565552
18.92 444.307281
18.94 433.769043
18.96 443.021942
18.98 456.795319
19.00 440.795105
19.02 429.844116
19.04 449.341431
19.06 465.368011
19.08 468.054901
19.10 463.646027
19.12 486.650055
19.14 482.209259
19.16 468.901947
19.18 480.286133
19.20 486.892914
19.22 464.794922
19.24 480.030334
19.26 475.101685
19.28 459.275543
19.30 455.82254
19.32 475.365601
19.34 471.677979
19.36 456.792664
19.38 476.684662
19.40 477.216614
19.42 478.469635
19.44 477.478912
19.46 487.922333
19.48 493.160492
19.50 485.041962
19.52 476.145538
19.54 480.378601
19.56 493.651398
19.58 489.787384
19.60 492.542511
19.62 492.89447
19.64 487.773132
19.66 482.440765
19.68 487.144257
19.70 502.189911
19.72 494.372223
19.74 478.399994
19.76 513.083862
19.78 499.4664
19.80 497.184113
19.82 492.937805
19.84 500.94754
19.86 505.276245
19.88 527.645508
19.90 512.942261
19.92 507.828949
19.94 504.669067
19.96 509.430664
19.98 514.549683
20.00 506.992706
20.02 507.006683
20.04 500.669678
20.06 511.008667
20.08 517.456604
20.10 522.842834
20.12 532.885864
20.14 521.565002
20.16 536.061707
20.18 543.555603
20.20 533.499329
20.22 524.9953
20.24 525.493164
20.26 528.292664
20.28 521.001709
20.30 500.616699
20.32 527.536682
20.34 542.536438
20.36 549.209717
20.38 542.412231
20.40 528.056213
20.42 539.591492
20.44 546.604797
20.46 541.959778
20.48 534.302429
20.50 555.122742
20.52 532.354675
20.54 531.179932
20.56 542.840332
20.58 554.507141
20.60 555.997864
20.62 537.314331
20.64 546.318909
20.66 574.381653
20.68 560.700012
20.70 533.066284
20.72 525.377686
20.74 542.669617
20.76 555.149231
20.78 569.008057
20.80 568.427063
20.82 551.381592
20.84 550.088928
20.86 554.628113
20.88 563.759399
20.90 570.188049
20.92 580.793762
20.94 562.991272
20.96 570.198547
20.98 568.22345
21.00 566.814209
21.02 581.502136
21.04 585.033569
21.06 595.470947
21.08 560.814575
21.10 584.044678
21.12 597.381775
21.14 590.835205
21.16 609.267944
21.18 633.922546
21.20 605.664124
21.22 580.646667
21.24 606.825073
21.26 610.221375
21.28 634.223999
21.30 664.522522
21.32 643.23999
21.34 632.697693
21.36 664.713257
21.38 676.489075
21.40 670.813843
21.42 674.929138
21.44 672.723511
21.46 687.341614
21.48 686.748169
21.50 702.755188
21.52 698.284973
21.54 686.571838
21.56 672.600403
21.58 673.176331
21.60 658.564392
21.62 641.759216
21.64 646.809265
21.66 648.966187
21.68 653.598267
21.70 650.267761
21.72 630.821533
21.74 640.445557
21.76 648.962463
21.78 627.10199
21.80 632.712708
21.82 628.53894
21.84 619.283997
21.86 652.084961
21.88 635.41687
21.90 616.361267
21.92 617.653748
21.94 623.609619
21.96 631.251892
21.98 639.756287
22.00 632.388245
22.02 629.257507
22.04 649.331177
22.06 623.832764
22.08 614.70105
22.10 611.852356
22.12 637.543762
22.14 631.767883
22.16 654.310913
22.18 646.764832
22.20 636.726624
22.22 643.920654
22.24 638.966003
22.26 653.595642
22.28 651.140259
22.30 648.558838
22.32 664.709473
22.34 663.863647
22.36 665.529297
22.38 660.85553
22.40 661.574219
22.42 651.595154
22.44 654.146729
22.46 643.133606
22.48 641.089417
22.50 641.572388
22.52 646.935486
22.54 648.722717
22.56 669.295837
22.58 642.139221
22.60 619.378784
22.62 621.926331
22.64 653.658813
22.66 647.587219
22.68 657.64917
22.70 649.239868
22.72 656.312439
22.74 651.153809
22.76 649.912598
22.78 653.916382
22.80 653.853333
22.82 660.871704
22.84 640.263489
22.86 619.144775
22.88 634.244141
22.90 644.404541
22.92 649.11145
22.94 652.152039
22.96 646.327698
22.98 644.53656
23.00 663.081726
23.02 669.04126
23.04 657.731262
23.06 649.210083
23.08 653.94873
23.10 659.252625
23.12 662.128784
23.14 640.116516
23.16 648.912231
23.18 669.553894
23.20 654.825073
23.22 652.072571
23.24 666.856201
23.26 669.059998
23.28 666.996826
23.30 647.363342
23.32 645.701538
23.34 677.962769
23.36 648.921326
23.38 653.3349
23.40 676.784363
23.42 637.49469
23.44 641.056763
23.46 669.856873
23.48 648.301208
23.50 651.965698
23.52 649.50354
23.54 653.413574
23.56 648.232239
23.58 651.793701
23.60 656.603943
23.62 663.221252
23.64 666.956177
23.66 654.591431
23.68 656.659363
23.70 665.051941
23.72 662.905273
23.74 645.949219
23.76 646.380371
23.78 655.513916
23.80 675.417053
23.82 672.865417
23.84 673.842834
23.86 678.263733
23.88 662.909912
23.90 673.727966
23.92 675.977356
23.94 676.984619
23.96 674.49054
23.98 674.284546
24.00 668.197449
24.02 670.813171
24.04 686.4422
24.06 685.11322
24.08 681.285461
24.10 673.572205
24.12 669.830139
24.14 675.175415
24.16 655.426514
24.18 671.723755
24.20 674.410095
24.22 671.674805
24.24 667.0448
24.26 689.383423
24.28 691.129639
24.30 685.545837
24.32 678.155579
24.34 688.706604
24.36 682.877441
24.38 684.777344
24.40 690.616455
24.42 694.178223
24.44 703.262878
24.46 687.589417
24.48 692.17572
24.50 680.190063
24.52 659.294861
24.54 664.822937
24.56 669.982178
24.58 688.310852
24.60 679.618774
24.62 676.913818
24.64 667.62207
24.66 678.337952
24.68 685.710205
24.70 696.710205
24.72 687.29895
24.74 680.303894
24.76 659.102783
24.78 661.279724
24.80 660.07135
24.82 681.127197
24.84 684.676514
24.86 685.124084
24.88 673.746887
24.90 688.944458
24.92 692.104553
24.94 682.622253
24.96 667.135132
24.98 674.847839
25.00 681.952026
25.02 667.551331
25.04 675.42511
25.06 692.164673
25.08 687.86084
25.10 679.695923
25.12 666.094482
25.14 670.797974
25.16 674.349365
25.18 678.464966
25.20 666.734863
25.22 673.12439
25.24 695.134216
25.26 686.675171
25.28 666.771179
25.30 674.890076
25.32 672.636353
25.34 655.852966
25.36 660.480774
25.38 665.464294
25.40 661.89679
25.42 662.307007
25.44 670.746338
25.46 677.296265
25.48 684.970947
25.50 675.11499
25.52 678.239258
25.54 695.200256
25.56 658.151855
25.58 670.873718
25.60 658.05542
25.62 661.590454
25.64 673.686401
25.66 690.286682
25.68 686.139709
25.70 663.374512
25.72 644.219177
25.74 660.972412
25.76 666.727478
25.78 662.611877
25.80 673.602173
25.82 670.924316
25.84 658.304199
25.86 680.216431
25.88 688.388733
25.90 674.493835
25.92 657.429565
25.94 651.449646
25.96 657.609558
25.98 660.904602
26.00 645.838074
26.02 671.250244
26.04 673.516052
26.06 664.232239
26.08 684.042603
26.10 665.949036
26.12 662.228027
26.14 665.246399
26.16 647.820374
26.18 654.767944
26.20 667.256958
26.22 674.956482
26.24 657.244507
26.26 661.782776
26.28 663.099792
26.30 654.923706
26.32 654.21521
26.34 649.083984
26.36 661.80481
26.38 679.295837
26.40 679.594421
26.42 681.14447
26.44 666.841125
26.46 684.891296
26.48 664.066467
26.50 663.733887
26.52 664.836426
26.54 661.087524
26.56 653.471008
26.58 669.050049
26.60 667.038452
26.62 655.857239
26.64 643.550232
26.66 670.573547
26.68 659.758179
26.70 673.186035
26.72 659.597412
26.74 658.347229
26.76 655.509094
26.78 650.512207
26.80 656.710205
26.82 668.550049
26.84 673.675171
26.86 675.754883
26.88 671.401672
26.90 673.041809
26.92 658.157837
26.94 650.827393
26.96 658.332092
26.98 634.496216
27.00 644.308289
27.02 656.817078
27.04 650.056335
27.06 639.789063
27.08 653.902039
27.10 649.808289
27.12 651.965393
27.14 678.231812
27.16 658.685547
27.18 653.624084
27.20 649.913879
27.22 645.326477
27.24 640.612671
27.26 644.762634
27.28 670.647583
27.30 652.25177
27.32 655.477844
27.34 647.116943
27.36 631.331665
27.38 645.349976
27.40 660.079529
27.42 670.601257
27.44 652.170654
27.46 647.508728
27.48 645.009277
27.50 659.003967
27.52 646.992981
27.54 634.336243
27.56 634.117188
27.58 642.564392
27.60 631.05249
27.62 635.0979
27.64 642.339294
27.66 643.418884
27.68 647.099426
27.70 642.273743
27.72 654.166931
27.74 654.07373
27.76 644.422546
27.78 646.951965
27.80 658.901428
27.82 668.023987
27.84 656.666687
27.86 645.7995
27.88 651.877014
27.90 657.643311
27.92 660.418274
27.94 651.0625
27.96 641.679626
27.98 638.214111
28.00 647.666565
28.02 643.712952
28.04 671.934937
28.06 669.008484
28.08 658.281128
28.10 635.703308
28.12 633.016174
28.14 637.635803
28.16 645.306152
28.18 648.903015
28.20 634.874817
28.22 632.714355
28.24 633.297668
28.26 642.229004
28.28 621.814209
28.30 614.421143
28.32 621.359131
28.34 651.176819
28.36 646.28064
28.38 655.09021
28.40 638.55304
28.42 646.414551
28.44 625.14978
28.46 629.051086
28.48 636.703369
28.50 655.635742
28.52 642.908691
28.54 624.264404
28.56 627.651184
28.58 640.279297
28.60 642.941284
28.62 646.226929
28.64 631.179077
28.66 641.851624
28.68 636.247314
28.70 629.896912
28.72 629.173645
28.74 615.984375
28.76 624.483398
28.78 629.468994
28.80 638.41748
28.82 640.214783
28.84 635.689636
28.86 634.884949
28.88 602.343506
28.90 619.965027
28.92 623.62738
28.94 637.801575
28.96 656.118591
28.98 653.120972
29.00 645.357422
29.02 644.24469
29.04 623.197266
29.06 632.792175
29.08 636.263123
29.10 640.83667
29.12 646.046875
29.14 625.569702
29.16 625.925964
29.18 618.737732
29.20 625.217529
29.22 639.679321
29.24 628.041565
29.26 623.885437
29.28 638.621521
29.30 646.501587
29.32 640.310242
29.34 617.290771
29.36 628.055603
29.38 630.766968
29.40 639.673523
29.42 640.533447
29.44 647.987549
29.46 662.195557
29.48 636.706787
29.50 642.082947
29.52 648.637695
29.54 633.839233
29.56 632.3396
29.58 629.66687
29.60 624.890442
29.62 642.202393
29.64 642.88916
29.66 663.568115
29.68 677.83252
29.70 642.321289
29.72 626.490234
29.74 623.69165
29.76 638.719299
29.78 656.355164
29.80 657.102173
29.82 668.813843
29.84 658.78894
29.86 659.124268
29.88 634.295776
29.90 642.590088
29.92 639.737793
29.94 656.411377
29.96 655.391418
29.98 647.324524
30.00 644.198547
30.02 638.20929
30.04 631.033691
30.06 649.726135
30.08 670.781372
30.10 686.245239
30.12 667.965271
30.14 678.771606
30.16 678.041992
30.18 682.865479
30.20 697.130981
30.22 708.469604
30.24 705.242065
30.26 732.505554
30.28 745.178345
30.30 759.778931
30.32 779.448425
30.34 789.240417
30.36 835.272766
30.38 854.207886
30.40 877.400269
30.42 920.289734
30.44 968.430054
30.46 1032.647095
30.48 1078.918701
30.50 1129.764038
30.52 1197.936523
30.54 1275.357544
30.56 1321.760498
30.58 1361.52356
30.60 1393.48584
30.62 1420.447998
30.64 1409.978394
30.66 1373.720459
30.68 1343.469482
30.70 1306.117432
30.72 1228.92627
30.74 1154.524902
30.76 1116.141235
30.78 1074.105347
30.80 971.498474
30.82 921.2771
30.84 859.462097
30.86 822.564575
30.88 815.303345
30.90 767.69574
30.92 757.381836
30.94 736.727722
30.96 718.574951
30.98 699.857483
31.00 680.986633
31.02 673.560486
31.04 686.606384
31.06 678.411011
31.08 655.157166
31.10 658.240173
31.12 658.410339
31.14 645.637146
31.16 650.195679
31.18 639.03717
31.20 632.989014
31.22 627.478577
31.24 630.966614
31.26 638.553894
31.28 641.511536
31.30 641.853149
31.32 631.56189
31.34 650.72998
31.36 640.798218
31.38 633.069641
31.40 638.354248
31.42 626.468445
31.44 639.075073
31.46 634.016479
31.48 627.66687
31.50 628.063904
31.52 646.382568
31.54 658.890991
31.56 636.294067
31.58 630.128174
31.60 627.695251
31.62 605.374939
31.64 605.668152
31.66 627.788269
31.68 609.407349
31.70 600.851501
31.72 608.51001
31.74 611.202148
31.76 613.022461
31.78 588.80249
31.80 579.183899
31.82 593.072327
31.84 574.468994
31.86 580.51062
31.88 580.537537
31.90 584.442444
31.92 584.089905
31.94 586.664307
31.96 583.760376
31.98 584.680725
32.00 584.402405
32.02 604.121826
32.04 597.281799
32.06 566.033936
32.08 570.427429
32.10 582.361572
32.12 592.140625
32.14 584.246277
32.16 575.426086
32.18 571.709473
32.20 589.467163
32.22 587.90155
32.24 583.394348
32.26 590.71228
32.28 569.151672
32.30 555.676636
32.32 554.325989
32.34 552.083191
32.36 557.894775
32.38 566.611816
32.40 564.557068
32.42 569.024231
32.44 587.403992
32.46 567.734314
32.48 549.655884
32.50 554.853394
32.52 559.135254
32.54 565.244812
32.56 557.02594
32.58 553.248779
32.60 548.494324
32.62 560.328613
32.64 548.296692
32.66 532.552856
32.68 541.416992
32.70 553.689087
32.72 555.581543
32.74 559.784058
32.76 569.097961
32.78 567.970032
32.80 556.346802
32.82 536.988708
32.84 553.181641
32.86 561.072815
32.88 552.178589
32.90 537.865845
32.92 550.521423
32.94 548.413635
32.96 548.285095
32.98 536.988647
33.00 536.463135
33.02 536.159058
33.04 538.528503
33.06 527.286926
33.08 526.294434
33.10 528.932373
33.12 525.710571
33.14 521.886292
33.16 522.677429
33.18 517.474915
33.20 517.795959
33.22 519.880737
33.24 519.857727
33.26 531.349365
33.28 541.733276
33.30 535.404541
33.32 523.709717
33.34 530.894104
33.36 521.811707
33.38 512.40625
33.40 515.607605
33.42 529.997375
33.44 539.487671
33.46 533.7276
33.48 523.721313
33.50 530.489746
33.52 524.944763
33.54 533.391357
33.56 533.037598
33.58 523.346802
33.60 520.69458
33.62 525.023865
33.64 525.922729
33.66 520.447266
33.68 510.734009
33.70 523.483643
33.72 512.089966
33.74 519.329285
33.76 524.846252
33.78 529.692139
33.80 530.164978
33.82 510.648193
33.84 508.413025
33.86 494.088043
33.88 496.618958
33.90 511.18219
33.92 517.768494
33.94 523.602295
33.96 528.405151
33.98 534.314819
34.00 551.018921
34.02 556.438904
34.04 550.006348
34.06 534.27417
34.08 541.956177
34.10 519.037476
34.12 529.6521
34.14 552.303589
34.16 549.788635
34.18 551.044922
34.20 571.592896
34.22 566.048462
34.24 543.426758
34.26 550.633972
34.28 547.692566
34.30 569.334167
34.32 569.732788
34.34 553.413269
34.36 556.420166
34.38 566.120667
34.40 561.730347
34.42 571.306091
34.44 549.692993
34.46 556.537659
34.48 544.489319
34.50 541.475769
34.52 535.503235
34.54 526.102722
34.56 530.978638
34.58 531.195496
34.60 513.31073
34.62 496.43988
34.64 490.097229
34.66 483.446777
34.68 492.014862
34.70 501.02063
34.72 501.233368
34.74 499.824036
34.76 487.966248
34.78 487.61853
34.80 492.85144
34.82 491.43634
34.84 486.158325
34.86 504.59024
34.88 487.131622
34.90 474.089233
34.92 469.145996
34.94 473.964325
34.96 470.9953
34.98 472.531738
35.00 485.394409
35.02 488.292419
35.04 485.924438
35.06 474.16983
35.08 472.533203
35.10 464.787323
35.12 472.015411
35.14 474.352692
35.16 469.098297
35.18 467.292236
35.20 472.393799
35.22 470.178864
35.24 456.62851
35.26 458.815033
35.28 461.166382
35.30 465.925262
35.32 462.882172
35.34 463.50351
35.36 453.01709
35.38 442.464722
35.40 451.522339
35.42 448.90564
35.44 466.197662
35.46 471.072418
35.48 464.088287
35.50 449.797089
35.52 445.524658
35.54 439.700775
35.56 451.796661
35.58 458.292633
35.60 432.943237
35.62 427.72998
35.64 444.256622
35.66 447.216705
35.68 455.983795
35.70 458.763733
35.72 451.516327
35.74 443.779694
35.76 430.361267
35.78 432.591888
35.80 430.261719
35.82 432.956299
35.84 432.539093
35.86 438.006683
35.88 427.886444
35.90 423.310394
35.92 427.363159
35.94 441.955994
35.96 431.960388
35.98 430.948914
36.00 443.500793
36.02 429.294464
36.04 429.44458
36.06 436.520416
36.08 435.639069
36.10 437.779358
36.12 433.739899
36.14 431.327911
36.16 415.449371
36.18 410.609314
36.20 409.019318
36.22 415.213318
36.24 415.27597
36.26 416.416809
36.28 412.176941
36.30 410.240234
36.32 427.748138
36.34 435.030518
36.36 425.808228
36.38 420.89743
36.40 420.993622
36.42 419.306122
36.44 430.791534
36.46 430.508301
36.48 414.034058
36.50 406.648071
36.52 416.086853
36.54 418.590027
36.56 422.10202
36.58 412.471741
36.60 396.333191
36.62 382.773438
36.64 395.75296
36.66 401.86319
36.68 405.055054
36.70 406.384888
36.72 390.577118
36.74 401.97757
36.76 426.029541
36.78 408.930267
36.80 405.19046
36.82 412.848724
36.84 407.83963
36.86 409.487152
36.88 398.443939
36.90 385.984161
36.92 386.106689
36.94 399.304535
36.96 401.358551
36.98 386.682922
37.00 392.36554
37.02 396.853027
37.04 402.260071
37.06 405.125
37.08 397.941406
37.10 397.652557
37.12 402.356293
37.14 402.225098
37.16 380.757782
37.18 387.622162
37.20 389.531616
37.22 372.822662
37.24 364.440582
37.26 382.786804
37.28 391.930908
37.30 384.221649
37.32 385.238831
37.34 384.592926
37.36 378.452087
37.38 376.498016
37.40 381.143066
37.42 370.439178
37.44 384.992584
37.46 390.800262
37.48 373.631348
37.50 376.828491
37.52 391.706055
37.54 388.630402
37.56 395.592529
37.58 385.91684
37.60 394.036926
37.62 400.492859
37.64 396.664917
37.66 390.529907
37.68 394.531647
37.70 392.660004
37.72 395.557312
37.74 393.260132
37.76 392.120422
37.78 392.605652
37.80 391.389984
37.82 377.757446
37.84 385.949585
37.86 386.63681
37.88 380.03949
37.90 364.240173
37.92 391.071716
37.94 386.891235
37.96 379.256744
37.98 378.417389
38.00 381.591248
38.02 385.244598
38.04 368.329132
38.06 379.569244
38.08 372.155365
38.10 371.813995
38.12 374.345917
38.14 367.311859
38.16 361.209595
38.18 359.791077
38.20 363.599854
38.22 374.016815
38.24 369.575165
38.26 366.864136
38.28 360.165771
38.30 354.905762
38.32 358.388489
38.34 367.105194
38.36 362.557739
38.38 360.249756
38.40 356.603638
38.42 352.262329
38.44 362.131256
38.46 363.431976
38.48 351.47464
38.50 347.484283
38.52 353.684204
38.54 356.865784
38.56 352.780701
38.58 355.736389
38.60 357.150574
38.62 360.616241
38.64 369.864471
38.66 355.66745
38.68 360.213165
38.70 356.824646
38.72 351.588928
38.74 348.541595
38.76 352.387909
38.78 357.883942
38.80 345.001984
38.82 344.308838
38.84 342.938446
38.86 356.822571
38.88 365.013519
38.90 362.280609
38.92 353.272797
38.94 352.663971
38.96 348.514618
38.98 353.740265
39.00 348.516296
39.02 342.528198
39.04 337.820251
39.06 346.766846
39.08 340.909607
39.10 336.070862
39.12 355.568359
39.14 355.825104
39.16 365.75592
39.18 368.955872
39.20 352.817719
39.22 347.673126
39.24 358.22876
39.26 348.773834
39.28 347.043365
39.30 356.225769
39.32 343.894684
39.34 336.708099
39.36 333.48996
39.38 327.900574
39.40 339.411835
39.42 344.336426
39.44 351.983582
39.46 357.80426
39.48 350.594177
39.50 346.094971
39.52 336.221405
39.54 340.895508
39.56 336.245758
39.58 341.03714
39.60 341.248322
39.62 342.547852
39.64 348.195129
39.66 348.055878
39.68 339.416138
39.70 334.513184
39.72 343.069122
39.74 345.745697
39.76 342.821289
39.78 348.601257
39.80 339.520203
39.82 353.469849
39.84 348.481293
39.86 338.158905
39.88 331.754028
39.90 335.811676
39.92 336.228241
39.94 334.479614
39.96 340.027618
39.98 350.212463
40.00 349.480835
