!@!!GADDS PLOTSO FILE: Chi integration type
!@!!Title/SampleName: ML_MAPbX3
!@!!User: NREL
!@!!Site: NREL SERF C211; SN 2510
!@!!Frame: 081022_MLProject_000_016.gfrm
!@!!Wavelengths    1.54184   1.54056   1.54439
!@!!Frame angles: 2Theta: 28.000 Omega: 5.000 Phi: 0.000 Chi: 90.000
!@!!Integration range: 2Theta: 10.000 to 40.000  Gamma: -100.000 to -80.000
!@!!Integration method: bin normalized
!@!N
!@!SS
!@!M
!@!L 0.0 0.0 0.0 0.0
!@!XDegrees
!@!YCounts
10.00 223.918564
10.02 226.400787
10.04 222.303329
10.06 247.104446
10.08 231.400024
10.10 229.354797
10.12 207.798019
10.14 234.184967
10.16 243.664032
10.18 227.357101
10.20 241.851242
10.22 237.13353
10.24 232.056519
10.26 228.506424
10.28 239.169449
10.30 224.178329
10.32 232.60936
10.34 243.657578
10.36 233.832642
10.38 201.607147
10.40 214.582291
10.42 226.298904
10.44 236.532211
10.46 245.396194
10.48 255.805634
10.50 241.896988
10.52 221.099411
10.54 230.042938
10.56 229.555725
10.58 221.002365
10.60 219.723862
10.62 227.798462
10.64 247.379333
10.66 250.955383
10.68 256.489868
10.70 237.269699
10.72 247.118576
10.74 249.770645
10.76 227.297729
10.78 230.279572
10.80 238.825058
10.82 250.601074
10.84 241.143112
10.86 266.666687
10.88 264.071533
10.90 247.183533
10.92 231.605453
10.94 234.545609
10.96 257.430756
10.98 269.174805
11.00 247.011139
11.02 249.343582
11.04 257.608978
11.06 225.107346
11.08 245.839218
11.10 268.168945
11.12 263.842438
11.14 237.238739
11.16 248.310852
11.18 263.01535
11.20 287.138458
11.22 268.791138
11.24 247.718323
11.26 244.365875
11.28 259.403625
11.30 244.048447
11.32 263.738251
11.34 260.451874
11.36 263.747498
11.38 260.788483
11.40 260.256592
11.42 252.362762
11.44 250.127716
11.46 245.579559
11.48 250.363342
11.50 259.218201
11.52 258.466766
11.54 264.512421
11.56 252.369888
11.58 247.872131
11.60 243.686859
11.62 257.927307
11.64 270.909454
11.66 248.91275
11.68 271.944366
11.70 272.597809
11.72 280.557251
11.74 279.234802
11.76 261.433472
11.78 258.484589
11.80 266.946655
11.82 288.181061
11.84 272.425629
11.86 280.53537
11.88 299.409607
11.90 296.339874
11.92 305.596527
11.94 297.081848
11.96 264.952972
11.98 279.36261
12.00 290.741547
12.02 304.914154
12.04 317.622986
12.06 332.394379
12.08 328.471863
12.10 333.845795
12.12 338.184326
12.14 322.645081
12.16 311.892426
12.18 303.067688
12.20 316.205322
12.22 317.71817
12.24 328.974243
12.26 335.825653
12.28 334.443726
12.30 321.639893
12.32 322.848206
12.34 352.774567
12.36 357.867615
12.38 350.188416
12.40 367.952759
12.42 375.696991
12.44 387.751373
12.46 401.284637
12.48 409.820984
12.50 431.885864
12.52 431.758728
12.54 435.214691
12.56 455.3396
12.58 438.487915
12.60 428.858765
12.62 410.698212
12.64 393.09729
12.66 406.314728
12.68 413.04953
12.70 395.109192
12.72 384.248108
12.74 376.128448
12.76 385.576019
12.78 368.006866
12.80 336.471039
12.82 323.927155
12.84 336.41571
12.86 346.890808
12.88 338.619659
12.90 334.523468
12.92 317.812927
12.94 302.223328
12.96 303.330444
12.98 307.522491
13.00 299.322174
13.02 304.904388
13.04 309.144531
13.06 309.361603
13.08 313.712006
13.10 314.690704
13.12 316.615692
13.14 300.733002
13.16 301.098724
13.18 322.919983
13.20 298.817963
13.22 300.27597
13.24 302.574158
13.26 287.811859
13.28 300.759308
13.30 317.444641
13.32 321.581055
13.34 320.378937
13.36 322.108124
13.38 297.564178
13.40 301.887787
13.42 312.896057
13.44 336.687622
13.46 343.100037
13.48 348.080566
13.50 345.047455
13.52 353.801544
13.54 379.935333
13.56 367.20874
13.58 393.851105
13.60 418.896179
13.62 428.199921
13.64 436.812805
13.66 432.549652
13.68 442.913483
13.70 473.802582
13.72 480.232605
13.74 498.13501
13.76 534.156311
13.78 561.626038
13.80 589.21521
13.82 580.340027
13.84 632.661804
13.86 695.582092
13.88 716.420532
13.90 769.446655
13.92 807.111328
13.94 852.891418
13.96 859.116455
13.98 916.19696
14.00 987.132813
14.02 1067.054077
14.04 1056.089233
14.06 1034.356323
14.08 1045.225586
14.10 1061.43396
14.12 1017.227661
14.14 992.201965
14.16 970.373535
14.18 957.835632
14.20 888.648438
14.22 783.569946
14.24 764.778442
14.26 677.353455
14.28 607.027527
14.30 553.054138
14.32 517.924133
14.34 487.43396
14.36 481.211517
14.38 447.324432
14.40 414.867767
14.42 408.286255
14.44 408.027618
14.46 397.719666
14.48 363.754791
14.50 370.505859
14.52 374.21701
14.54 355.957489
14.56 339.459076
14.58 351.105408
14.60 349.819977
14.62 340.603058
14.64 337.449371
14.66 356.586334
14.68 343.884338
14.70 356.237488
14.72 353.722382
14.74 348.38858
14.76 359.2901
14.78 335.402252
14.80 317.668213
14.82 313.501648
14.84 328.127747
14.86 362.582306
14.88 354.312134
14.90 341.685822
14.92 350.727203
14.94 358.152954
14.96 372.764557
14.98 364.666565
15.00 362.117462
15.02 363.047882
15.04 373.027222
15.06 393.261749
15.08 395.515656
15.10 381.283203
15.12 397.652466
15.14 401.957703
15.16 423.154755
15.18 425.666412
15.20 431.093903
15.22 453.765228
15.24 453.46698
15.26 447.559937
15.28 457.896576
15.30 470.722015
15.32 483.233307
15.34 477.15625
15.36 487.256012
15.38 467.532104
15.40 472.045624
15.42 477.314026
15.44 486.68457
15.46 482.09256
15.48 463.18515
15.50 447.952911
15.52 440.210327
15.54 414.199493
15.56 433.335205
15.58 421.275482
15.60 383.50296
15.62 389.02301
15.64 381.099457
15.66 381.952148
15.68 364.36911
15.70 369.792206
15.72 353.931244
15.74 345.141815
15.76 331.804077
15.78 351.108521
15.80 348.164185
15.82 334.392578
15.84 347.371857
15.86 345.505554
15.88 348.389954
15.90 347.794098
15.92 337.567505
15.94 328.078491
15.96 337.532501
15.98 346.251526
16.00 341.42868
16.02 346.978271
16.04 352.642212
16.06 345.442566
16.08 346.991913
16.10 331.294434
16.12 350.977997
16.14 343.382263
16.16 354.879333
16.18 347.543976
16.20 337.361115
16.22 325.161621
16.24 332.4422
16.26 343.842255
16.28 342.172455
16.30 335.639313
16.32 335.723633
16.34 334.199188
16.36 332.234314
16.38 340.329102
16.40 358.271729
16.42 349.329132
16.44 356.759369
16.46 335.530884
16.48 341.92981
16.50 331.39856
16.52 342.505219
16.54 343.486725
16.56 351.875183
16.58 354.82016
16.60 334.101227
16.62 331.583405
16.64 358.886047
16.66 371.72876
16.68 352.883026
16.70 363.237244
16.72 356.880615
16.74 348.181885
16.76 352.078003
16.78 362.064453
16.80 363.54718
16.82 353.005676
16.84 338.1203
16.86 348.875671
16.88 352.350403
16.90 363.813354
16.92 340.774902
16.94 347.750031
16.96 362.159149
16.98 354.475922
17.00 370.965302
17.02 357.343262
17.04 354.019226
17.06 353.419647
17.08 361.172211
17.10 354.929993
17.12 357.977814
17.14 357.877472
17.16 365.84552
17.18 360.690796
17.20 363.745728
17.22 369.535156
17.24 358.492126
17.26 342.465118
17.28 343.552094
17.30 354.789246
17.32 337.980835
17.34 358.349457
17.36 357.840637
17.38 350.591614
17.40 346.485199
17.42 377.08313
17.44 371.299896
17.46 375.212524
17.48 375.19696
17.50 385.576965
17.52 374.515808
17.54 385.6828
17.56 383.374847
17.58 377.110931
17.60 364.555267
17.62 379.49704
17.64 384.417053
17.66 380.634705
17.68 403.828003
17.70 405.185272
17.72 393.519745
17.74 369.35556
17.76 366.081268
17.78 370.854065
17.80 358.685364
17.82 369.315979
17.84 383.418152
17.86 397.263428
17.88 377.668945
17.90 372.565063
17.92 392.997467
17.94 388.307465
17.96 376.509033
17.98 379.693817
18.00 406.940887
18.02 415.345428
18.04 402.677429
18.06 419.491364
18.08 414.276978
18.10 390.976715
18.12 382.546051
18.14 389.263672
18.16 390.983826
18.18 407.698944
18.20 399.541412
18.22 403.552307
18.24 389.336395
18.26 377.094299
18.28 398.169342
18.30 398.07254
18.32 403.489319
18.34 409.07074
18.36 400.476654
18.38 404.588776
18.40 420.475006
18.42 416.385742
18.44 410.903076
18.46 413.171448
18.48 393.251007
18.50 395.759827
18.52 405.623016
18.54 407.78418
18.56 404.147766
18.58 401.257385
18.60 401.396545
18.62 418.591888
18.64 420.71109
18.66 419.608459
18.68 421.2659
18.70 416.127808
18.72 424.752075
18.74 438.412476
18.76 413.076538
18.78 406.093445
18.80 411.833069
18.82 405.966034
18.84 413.48175
18.86 440.332031
18.88 426.439026
18.90 430.673248
18.92 438.12149
18.94 429.459198
18.96 428.153687
18.98 451.597656
19.00 445.928558
19.02 437.85379
19.04 436.855865
19.06 433.698395
19.08 405.892731
19.10 410.584015
19.12 432.859192
19.14 451.922699
19.16 439.567932
19.18 443.058716
19.20 458.020233
19.22 454.191772
19.24 456.018311
19.26 442.342285
19.28 437.44278
19.30 453.176605
19.32 441.783478
19.34 433.077637
19.36 425.47583
19.38 437.763184
19.40 439.794098
19.42 437.378876
19.44 446.564148
19.46 447.313873
19.48 446.804077
19.50 460.280457
19.52 450.637909
19.54 462.169983
19.56 441.447632
19.58 471.269043
19.60 473.962097
19.62 456.055634
19.64 443.366943
19.66 446.077728
19.68 459.256348
19.70 488.605865
19.72 479.820099
19.74 465.940338
19.76 436.830444
19.78 461.031311
19.80 484.048309
19.82 488.965363
19.84 485.723267
19.86 488.021118
19.88 475.72168
19.90 480.365479
19.92 482.153534
19.94 491.852936
19.96 500.674927
19.98 470.040771
20.00 475.31546
20.02 494.156311
20.04 502.043671
20.06 481.593689
20.08 481.987915
20.10 488.873291
20.12 487.822327
20.14 468.080536
20.16 460.244049
20.18 468.957428
20.20 496.244568
20.22 508.352203
20.24 498.960999
20.26 478.893585
20.28 468.0961
20.30 482.402161
20.32 510.448242
20.34 516.673828
20.36 513.755371
20.38 496.901123
20.40 476.790405
20.42 466.674927
20.44 476.538452
20.46 510.763519
20.48 499.358063
20.50 520.498596
20.52 517.736511
20.54 513.390137
20.56 512.927185
20.58 515.168091
20.60 510.643188
20.62 491.92453
20.64 500.256744
20.66 499.589294
20.68 494.507904
20.70 518.032349
20.72 509.375275
20.74 520.653015
20.76 529.584412
20.78 525.589172
20.80 511.590027
20.82 512.025146
20.84 530.26886
20.86 513.251282
20.88 516.375061
20.90 509.826569
20.92 517.521729
20.94 524.093018
20.96 536.248657
20.98 542.905945
21.00 527.236694
21.02 514.460266
21.04 527.019897
21.06 531.226563
21.08 503.865265
21.10 540.074829
21.12 543.08313
21.14 545.146606
21.16 540.0802
21.18 528.147156
21.20 524.524048
21.22 532.495361
21.24 535.443787
21.26 542.505188
21.28 547.948792
21.30 551.084839
21.32 540.26178
21.34 530.961487
21.36 552.718811
21.38 557.904785
21.40 557.489868
21.42 546.637817
21.44 568.026611
21.46 560.312622
21.48 552.068787
21.50 568.19281
21.52 565.358948
21.54 564.310669
21.56 559.015747
21.58 563.204163
21.60 562.43335
21.62 540.199219
21.64 526.87915
21.66 527.806458
21.68 547.250916
21.70 554.508484
21.72 553.728516
21.74 559.195618
21.76 569.631653
21.78 577.908752
21.80 579.698975
21.82 570.193359
21.84 549.356628
21.86 557.017212
21.88 566.976563
21.90 567.954285
21.92 567.477417
21.94 558.89032
21.96 599.286255
21.98 597.949158
22.00 582.703125
22.02 582.347534
22.04 590.388306
22.06 574.296997
22.08 565.537231
22.10 575.253662
22.12 570.918396
22.14 586.036682
22.16 582.539673
22.18 562.33252
22.20 585.660828
22.22 575.795654
22.24 604.699524
22.26 598.977905
22.28 580.212402
22.30 581.054382
22.32 568.138489
22.34 591.332153
22.36 589.580688
22.38 594.101013
22.40 609.266785
22.42 597.469482
22.44 597.028442
22.46 586.795227
22.48 608.138245
22.50 621.02179
22.52 601.240845
22.54 592.559692
22.56 588.739502
22.58 590.979675
22.60 614.311707
22.62 609.524841
22.64 582.987915
22.66 584.265503
22.68 593.65918
22.70 602.172974
22.72 601.591064
22.74 614.515869
22.76 624.731201
22.78 628.224976
22.80 606.067322
22.82 616.296082
22.84 618.671448
22.86 607.727173
22.88 586.786438
22.90 603.548889
22.92 615.321045
22.94 610.426514
22.96 614.200928
22.98 607.810242
23.00 596.403015
23.02 613.423279
23.04 613.682251
23.06 582.328674
23.08 585.555786
23.10 592.727539
23.12 585.42511
23.14 599.234802
23.16 609.653381
23.18 619.838074
23.20 618.422058
23.22 624.5448
23.24 631.537292
23.26 636.85022
23.28 627.60199
23.30 630.742554
23.32 624.675293
23.34 616.06897
23.36 628.473877
23.38 615.744141
23.40 617.949341
23.42 628.827515
23.44 642.481018
23.46 620.306763
23.48 612.309387
23.50 623.659424
23.52 651.486755
23.54 637.646973
23.56 600.092896
23.58 614.898987
23.60 629.146179
23.62 619.85022
23.64 625.936035
23.66 628.194336
23.68 609.406372
23.70 609.065857
23.72 614.657471
23.74 624.258606
23.76 619.218262
23.78 634.496643
23.80 627.266968
23.82 626.846375
23.84 618.252014
23.86 616.256104
23.88 631.776062
23.90 642.678162
23.92 628.468445
23.94 628.186646
23.96 638.013733
23.98 639.326233
24.00 641.758911
24.02 649.99408
24.04 658.59021
24.06 640.660278
24.08 631.329346
24.10 627.015015
24.12 628.734985
24.14 629.792114
24.16 640.959473
24.18 641.036865
24.20 631.349487
24.22 615.102051
24.24 618.105469
24.26 641.262573
24.28 640.252686
24.30 627.576599
24.32 630.590881
24.34 629.34491
24.36 641.283752
24.38 656.536316
24.40 649.841553
24.42 641.780518
24.44 641.816345
24.46 637.233582
24.48 647.92157
24.50 637.798706
24.52 630.504944
24.54 644.063721
24.56 652.15387
24.58 650.698059
24.60 639.97583
24.62 642.38855
24.64 662.333923
24.66 652.827332
24.68 655.803894
24.70 636.632263
24.72 640.768127
24.74 655.644592
24.76 630.316589
24.78 639.765015
24.80 639.663269
24.82 639.374146
24.84 637.518494
24.86 633.568115
24.88 649.429688
24.90 650.304382
24.92 642.193298
24.94 638.427979
24.96 641.829102
24.98 646.186646
25.00 653.647888
25.02 643.818176
25.04 633.388062
25.06 623.315125
25.08 635.61615
25.10 650.293823
25.12 641.282898
25.14 654.269531
25.16 650.666321
25.18 640.405029
25.20 636.118225
25.22 649.42218
25.24 643.683228
25.26 645.473389
25.28 640.192749
25.30 650.437805
25.32 673.444702
25.34 661.316162
25.36 654.74707
25.38 639.361572
25.40 640.71167
25.42 646.534058
25.44 637.200989
25.46 658.665833
25.48 663.406433
25.50 664.603455
25.52 655.064575
25.54 661.716919
25.56 639.97937
25.58 638.828735
25.60 634.847412
25.62 630.5271
25.64 620.658875
25.66 627.734924
25.68 654.401001
25.70 633.88446
25.72 630.134644
25.74 646.543518
25.76 626.063354
25.78 631.33606
25.80 643.329834
25.82 646.336914
25.84 642.000061
25.86 626.258545
25.88 638.700989
25.90 658.901306
25.92 653.214172
25.94 641.413574
25.96 647.314148
25.98 649.869141
26.00 649.428284
26.02 649.448608
26.04 639.169128
26.06 630.710815
26.08 654.118835
26.10 632.733521
26.12 650.096069
26.14 637.617126
26.16 630.193237
26.18 619.447632
26.20 638.188293
26.22 637.568359
26.24 630.666199
26.26 638.043457
26.28 656.455322
26.30 662.144043
26.32 652.451538
26.34 626.280212
26.36 616.309204
26.38 635.632568
26.40 658.496582
26.42 643.51532
26.44 638.961548
26.46 623.765442
26.48 625.911987
26.50 614.21344
26.52 617.031677
26.54 622.174377
26.56 643.001038
26.58 627.527893
26.60 628.369812
26.62 633.325684
26.64 621.084595
26.66 625.448608
26.68 625.696289
26.70 610.845093
26.72 631.80957
26.74 637.185791
26.76 650.571838
26.78 652.0448
26.80 638.540649
26.82 634.388123
26.84 660.34314
26.86 640.260437
26.88 631.419678
26.90 629.938477
26.92 625.969849
26.94 615.658508
26.96 627.193054
26.98 638.273987
27.00 618.684937
27.02 628.966553
27.04 640.392029
27.06 651.201111
27.08 635.574097
27.10 637.225708
27.12 650.423767
27.14 644.065125
27.16 626.396484
27.18 615.278198
27.20 615.835571
27.22 643.145874
27.24 622.852905
27.26 626.111633
27.28 624.130188
27.30 635.198547
27.32 647.37854
27.34 628.135071
27.36 616.198975
27.38 620.202271
27.40 616.530457
27.42 630.173767
27.44 630.267639
27.46 613.94574
27.48 630.519897
27.50 637.553894
27.52 638.557861
27.54 658.259949
27.56 638.179138
27.58 628.083984
27.60 623.187195
27.62 614.304626
27.64 618.124268
27.66 643.413574
27.68 640.416626
27.70 638.13031
27.72 645.893127
27.74 645.701782
27.76 662.322144
27.78 669.210999
27.80 651.640991
27.82 637.933228
27.84 642.097717
27.86 648.661194
27.88 650.078735
27.90 669.086792
27.92 682.130127
27.94 682.283081
27.96 672.688049
27.98 695.400574
28.00 685.544373
28.02 660.878662
28.04 679.886292
28.06 712.27063
28.08 725.956604
28.10 752.683838
28.12 774.431641
28.14 781.813171
28.16 785.302795
28.18 827.764526
28.20 861.879028
28.22 879.359009
28.24 908.212708
28.26 950.738281
28.28 969.289368
28.30 1028.245239
28.32 1069.526245
28.34 1119.113525
28.36 1149.917114
28.38 1179.697876
28.40 1181.94397
28.42 1186.769775
28.44 1206.469116
28.46 1206.124634
28.48 1189.700195
28.50 1174.809692
28.52 1144.20752
28.54 1093.712891
28.56 1066.442017
28.58 1017.689453
28.60 1000.05835
28.62 985.019287
28.64 929.45166
28.66 877.013367
28.68 827.581726
28.70 786.357727
28.72 771.204468
28.74 742.108521
28.76 731.795715
28.78 709.697937
28.80 696.593262
28.82 684.245972
28.84 677.342651
28.86 669.973694
28.88 654.579651
28.90 660.461426
28.92 668.155151
28.94 656.73468
28.96 642.137085
28.98 642.090393
29.00 631.858704
29.02 633.364075
29.04 643.937561
29.06 636.515076
29.08 635.098022
29.10 633.175171
29.12 609.541992
29.14 601.691833
29.16 630.868652
29.18 619.936523
29.20 607.644836
29.22 616.556396
29.24 639.887146
29.26 631.11145
29.28 630.03009
29.30 615.605896
29.32 613.178467
29.34 607.770203
29.36 613.200867
29.38 633.840271
29.40 613.554749
29.42 606.876709
29.44 609.094788
29.46 605.2547
29.48 607.287537
29.50 607.929565
29.52 609.240295
29.54 599.005798
29.56 594.29718
29.58 598.894287
29.60 590.763367
29.62 607.163086
29.64 614.844849
29.66 619.467651
29.68 617.325989
29.70 604.037415
29.72 607.355225
29.74 616.909912
29.76 604.941833
29.78 601.575745
29.80 609.207581
29.82 586.071228
29.84 587.350647
29.86 602.328003
29.88 613.802002
29.90 604.145142
29.92 597.173401
29.94 592.600647
29.96 583.345337
29.98 604.956726
30.00 604.673279
30.02 581.109985
30.04 568.770874
30.06 578.671326
30.08 568.394104
30.10 603.937866
30.12 608.479126
30.14 614.141174
30.16 606.602295
30.18 598.647705
30.20 597.709229
30.22 595.493713
30.24 590.798706
30.26 595.04071
30.28 595.607483
30.30 598.260803
30.32 588.438843
30.34 595.010925
30.36 590.088074
30.38 587.263672
30.40 564.013428
30.42 574.646912
30.44 584.958557
30.46 597.427368
30.48 592.815796
30.50 593.634399
30.52 596.25592
30.54 601.378357
30.56 583.454895
30.58 600.776917
30.60 601.312683
30.62 591.461914
30.64 577.701904
30.66 577.039795
30.68 592.525696
30.70 582.522034
30.72 587.51825
30.74 588.68042
30.76 587.425598
30.78 594.842651
30.80 592.053711
30.82 614.733948
30.84 601.096252
30.86 590.066711
30.88 608.11322
30.90 590.537781
30.92 609.89856
30.94 598.830627
30.96 610.766113
30.98 635.06897
31.00 612.004089
31.02 610.18811
31.04 631.085571
31.06 637.942444
31.08 625.704773
31.10 627.637329
31.12 635.707336
31.14 634.220825
31.16 645.661682
31.18 653.774658
31.20 638.050842
31.22 626.962402
31.24 637.937256
31.26 621.541077
31.28 624.886475
31.30 624.611145
31.32 609.44873
31.34 602.175049
31.36 628.990051
31.38 623.152832
31.40 620.705017
31.42 604.804871
31.44 613.366455
31.46 592.505981
31.48 595.778442
31.50 601.587036
31.52 604.076843
31.54 605.237061
31.56 624.779358
31.58 620.48877
31.60 622.283997
31.62 630.322937
31.64 621.705444
31.66 611.324951
31.68 617.037292
31.70 620.894836
31.72 615.928894
31.74 617.018005
31.76 638.721375
31.78 646.585266
31.80 640.320374
31.82 666.990356
31.84 653.825745
31.86 643.447327
31.88 651.944031
31.90 663.444275
31.92 667.641357
31.94 657.071655
31.96 636.527832
31.98 644.569519
32.00 646.604858
32.02 644.158691
32.04 640.936646
32.06 603.454224
32.08 612.597473
32.10 607.542969
32.12 608.007507
32.14 590.240234
32.16 593.261292
32.18 597.81488
32.20 589.357666
32.22 590.115906
32.24 577.994324
32.26 566.115417
32.28 557.496765
32.30 549.472412
32.32 554.919312
32.34 552.319458
32.36 552.154419
32.38 555.159424
32.40 557.525635
32.42 547.853088
32.44 538.959839
32.46 538.525513
32.48 527.369995
32.50 524.988037
32.52 531.427002
32.54 534.59491
32.56 541.0354
32.58 540.984985
32.60 543.707825
32.62 549.154114
32.64 540.598083
32.66 541.605103
32.68 541.432434
32.70 544.718445
32.72 535.374207
32.74 532.689331
32.76 530.723145
32.78 538.316589
32.80 547.982849
32.82 513.38855
32.84 530.873169
32.86 518.623047
32.88 519.090881
32.90 523.166809
32.92 521.499023
32.94 520.548584
32.96 509.204041
32.98 510.66037
33.00 525.06897
33.02 532.618469
33.04 526.455566
33.06 519.220337
33.08 522.589539
33.10 519.192017
33.12 512.990723
33.14 505.279236
33.16 501.466583
33.18 501.859619
33.20 518.738586
33.22 522.496338
33.24 523.4021
33.26 521.946655
33.28 513.710938
33.30 511.117188
33.32 494.595001
33.34 496.642151
33.36 502.988434
33.38 514.291382
33.40 514.619934
33.42 490.725525
33.44 490.656158
33.46 488.179321
33.48 500.562683
33.50 499.102814
33.52 503.509857
33.54 501.653687
33.56 496.407562
33.58 501.392883
33.60 517.151978
33.62 499.509491
33.64 492.947601
33.66 480.369843
33.68 476.471405
33.70 477.983765
33.72 492.68457
33.74 480.182861
33.76 476.844147
33.78 486.464661
33.80 489.401642
33.82 500.77475
33.84 502.467285
33.86 479.048462
33.88 464.69751
33.90 471.056793
33.92 473.572815
33.94 476.346771
33.96 491.457031
33.98 483.166901
34.00 468.02713
34.02 460.186615
34.04 472.76413
34.06 497.577057
34.08 491.796753
34.10 468.477295
34.12 469.488098
34.14 484.923401
34.16 494.440704
34.18 494.903381
34.20 493.720459
34.22 480.232635
34.24 487.202942
34.26 483.991608
34.28 478.616547
34.30 466.12735
34.32 466.924347
34.34 472.324402
34.36 477.281067
34.38 489.33783
34.40 483.609589
34.42 473.947174
34.44 463.312775
34.46 473.022583
34.48 482.801849
34.50 465.906281
34.52 470.077209
34.54 475.71875
34.56 474.296234
34.58 474.109772
34.60 477.801453
34.62 474.885864
34.64 478.777374
34.66 472.210114
34.68 469.42981
34.70 481.151459
34.72 496.139923
34.74 473.968719
34.76 473.216583
34.78 490.980316
34.80 480.959015
34.82 470.267853
34.84 476.785919
34.86 464.479279
34.88 473.20816
34.90 475.494751
34.92 479.010803
34.94 466.799255
34.96 458.279755
34.98 474.374146
35.00 484.935425
35.02 480.688782
35.04 482.025513
35.06 480.366425
35.08 476.594086
35.10 468.156158
35.12 465.154358
35.14 461.832672
35.16 466.976349
35.18 462.588837
35.20 449.117004
35.22 453.549866
35.24 446.243317
35.26 441.566406
35.28 442.30838
35.30 451.956024
35.32 442.595825
35.34 451.043243
35.36 439.79657
35.38 442.017242
35.40 449.395599
35.42 441.515778
35.44 426.762878
35.46 439.042694
35.48 439.667358
35.50 443.524506
35.52 434.98996
35.54 428.193512
35.56 425.147736
35.58 432.601837
35.60 440.638336
35.62 430.18988
35.64 435.150726
35.66 423.762451
35.68 421.981079
35.70 434.5224
35.72 421.481567
35.74 413.574707
35.76 422.945374
35.78 436.756805
35.80 431.616486
35.82 421.158813
35.84 422.537811
35.86 420.740143
35.88 430.12738
35.90 418.675964
35.92 408.994019
35.94 404.868561
35.96 393.693939
35.98 408.589569
36.00 415.818634
36.02 410.144073
36.04 409.053955
36.06 412.073547
36.08 417.914856
36.10 423.758484
36.12 414.574005
36.14 420.168823
36.16 397.661469
36.18 411.652771
36.20 411.862305
36.22 416.638794
36.24 432.121948
36.26 426.789368
36.28 399.276703
36.30 399.678833
36.32 412.184204
36.34 412.442535
36.36 394.765228
36.38 393.443024
36.40 408.056366
36.42 405.608063
36.44 400.413971
36.46 403.740753
36.48 400.798187
36.50 403.451111
36.52 391.08905
36.54 389.742828
36.56 388.394714
36.58 385.303009
36.60 387.298309
36.62 391.703857
36.64 388.793182
36.66 393.763336
36.68 390.920105
36.70 388.004395
36.72 389.335541
36.74 393.967773
36.76 382.987762
36.78 383.432861
36.80 380.825378
36.82 391.299103
36.84 387.819916
36.86 384.350433
36.88 376.590027
36.90 401.085022
36.92 391.40567
36.94 376.850891
36.96 378.601135
36.98 374.24823
37.00 373.470551
37.02 376.446503
37.04 385.745148
37.06 391.110535
37.08 382.02948
37.10 380.404724
37.12 375.896301
37.14 381.707397
37.16 386.10257
37.18 377.616364
37.20 385.290375
37.22 375.348816
37.24 373.234344
37.26 364.889252
37.28 364.840454
37.30 377.431641
37.32 375.37381
37.34 367.529968
37.36 352.597168
37.38 363.103607
37.40 370.630249
37.42 365.767792
37.44 353.357178
37.46 356.950165
37.48 379.472839
37.50 375.148407
37.52 366.940002
37.54 368.24646
37.56 372.522003
37.58 361.50473
37.60 366.140625
37.62 362.811218
37.64 368.034851
37.66 377.871246
37.68 363.455078
37.70 355.309113
37.72 358.305542
37.74 366.824982
37.76 365.832336
37.78 353.948883
37.80 361.188538
37.82 361.841949
37.84 366.057098
37.86 353.399963
37.88 370.067596
37.90 369.881714
37.92 374.519104
37.94 355.961456
37.96 348.315125
37.98 360.281494
38.00 353.806854
38.02 360.783478
38.04 356.501007
38.06 352.506622
38.08 352.260162
38.10 358.467285
38.12 344.190369
38.14 342.325745
38.16 343.648499
38.18 353.605896
38.20 351.170624
38.22 345.070221
38.24 348.483246
38.26 357.531982
38.28 349.82373
38.30 366.137482
38.32 355.960297
38.34 360.244843
38.36 360.640289
38.38 365.231506
38.40 355.779633
38.42 352.295685
38.44 365.276398
38.46 367.619354
38.48 360.806427
38.50 372.428894
38.52 367.650513
38.54 361.304474
38.56 366.060883
38.58 358.520721
38.60 359.402283
38.62 360.396667
38.64 363.923248
38.66 358.493408
38.68 374.245331
38.70 363.638763
38.72 355.140381
38.74 343.753174
38.76 345.588348
38.78 350.80838
38.80 355.548431
38.82 352.812408
38.84 346.325836
38.86 344.554993
38.88 332.311615
38.90 341.785431
38.92 349.826355
38.94 355.233612
38.96 348.938507
38.98 346.271881
39.00 341.830078
39.02 334.499786
39.04 344.074463
39.06 353.187012
39.08 349.2789
39.10 342.628693
39.12 341.431641
39.14 347.906403
39.16 345.142151
39.18 346.278656
39.20 343.891022
39.22 349.492462
39.24 344.49527
39.26 346.673584
39.28 351.579529
39.30 351.546875
39.32 339.953125
39.34 344.981293
39.36 352.492035
39.38 345.444366
39.40 350.312164
39.42 351.098175
39.44 354.570984
39.46 354.278473
39.48 344.277008
39.50 339.448944
39.52 336.286438
39.54 359.321442
39.56 354.071533
39.58 339.735809
39.60 344.035492
39.62 342.072693
39.64 343.353119
39.66 346.777069
39.68 356.112946
39.70 353.577606
39.72 336.864044
39.74 340.176636
39.76 344.770203
39.78 335.062378
39.80 335.835297
39.82 347.753784
39.84 340.80069
39.86 333.049896
39.88 329.732269
39.90 351.252808
39.92 340.055084
39.94 327.558807
39.96 345.776154
39.98 336.199158
40.00 338.621399
