!@!!GADDS PLOTSO FILE: Chi integration type
!@!!Title/SampleName: ML_MAPbX3
!@!!User: NREL
!@!!Site: NREL SERF C211; SN 2510
!@!!Frame: 081022_MLProject_000_017.gfrm
!@!!Wavelengths    1.54184   1.54056   1.54439
!@!!Frame angles: 2Theta: 28.000 Omega: 5.000 Phi: 0.000 Chi: 90.000
!@!!Integration range: 2Theta: 10.000 to 40.000  Gamma: -100.000 to -80.000
!@!!Integration method: bin normalized
!@!N
!@!SS
!@!M
!@!L 0.0 0.0 0.0 0.0
!@!XDegrees
!@!YCounts
10.00 224.18248
10.02 204.649734
10.04 209.3405
10.06 220.890488
10.08 223.629593
10.10 217.410568
10.12 216.653976
10.14 215.051025
10.16 219.820068
10.18 220.71846
10.20 212.148804
10.22 219.156189
10.24 205.903091
10.26 201.759827
10.28 219.198471
10.30 228.724899
10.32 216.426086
10.34 218.614059
10.36 233.670517
10.38 213.150787
10.40 210.62204
10.42 212.964111
10.44 206.136826
10.46 213.283005
10.48 211.159088
10.50 221.259628
10.52 199.196365
10.54 203.477524
10.56 209.928467
10.58 208.485168
10.60 218.344879
10.62 241.941589
10.64 249.912415
10.66 213.15451
10.68 215.793564
10.70 224.621201
10.72 238.525696
10.74 222.119522
10.76 224.610992
10.78 199.61879
10.80 226.901718
10.82 226.242401
10.84 208.846786
10.86 229.842285
10.88 239.560364
10.90 224.385818
10.92 223.127304
10.94 232.653839
10.96 231.727692
10.98 248.472595
11.00 220.734131
11.02 244.205994
11.04 246.129745
11.06 235.807663
11.08 241.736588
11.10 256.455963
11.12 253.014893
11.14 257.438873
11.16 250.628723
11.18 248.394714
11.20 236.287079
11.22 255.748108
11.24 252.475388
11.26 240.261841
11.28 249.67511
11.30 262.38269
11.32 272.430481
11.34 260.210907
11.36 257.708466
11.38 251.55101
11.40 255.386292
11.42 248.835754
11.44 266.753235
11.46 272.292847
11.48 275.297699
11.50 273.578979
11.52 267.021759
11.54 244.601456
11.56 252.063705
11.58 238.02713
11.60 250.341003
11.62 264.114563
11.64 270.527435
11.66 264.78479
11.68 269.732513
11.70 267.970123
11.72 290.659149
11.74 285.216949
11.76 291.605774
11.78 290.511353
11.80 299.745697
11.82 308.991394
11.84 290.865784
11.86 325.719025
11.88 322.332916
11.90 314.41684
11.92 362.966187
11.94 352.040131
11.96 368.767639
11.98 381.320984
12.00 385.671234
12.02 411.07428
12.04 434.191956
12.06 435.023773
12.08 428.781555
12.10 458.537811
12.12 481.426971
12.14 503.601288
12.16 498.839111
12.18 504.809387
12.20 518.970642
12.22 566.445313
12.24 626.125183
12.26 672.138428
12.28 692.936401
12.30 702.483948
12.32 725.702698
12.34 805.95575
12.36 878.282715
12.38 937.860718
12.40 991.182922
12.42 1058.21814
12.44 1144.242065
12.46 1191.612305
12.48 1298.837036
12.50 1400.70166
12.52 1431.652954
12.54 1467.674561
12.56 1517.410156
12.58 1568.194336
12.60 1533.634888
12.62 1484.026001
12.64 1421.949341
12.66 1390.719238
12.68 1362.778564
12.70 1259.242432
12.72 1166.921387
12.74 1085.653442
12.76 1027.842163
12.78 944.807007
12.80 877.938721
12.82 784.483398
12.84 718.828552
12.86 645.596436
12.88 599.515991
12.90 549.617676
12.92 513.87085
12.94 460.08432
12.96 434.533783
12.98 427.522034
13.00 403.903625
13.02 389.723999
13.04 380.339966
13.06 382.733368
13.08 365.688843
13.10 351.132996
13.12 348.649628
13.14 337.721588
13.16 330.634552
13.18 317.221161
13.20 330.793945
13.22 344.586853
13.24 324.267181
13.26 337.463593
13.28 329.206573
13.30 331.316711
13.32 325.020416
13.34 323.433807
13.36 312.511078
13.38 305.995239
13.40 310.152649
13.42 319.373962
13.44 306.542969
13.46 298.422729
13.48 315.997253
13.50 324.881744
13.52 329.645142
13.54 315.1185
13.56 319.899658
13.58 335.932281
13.60 333.017731
13.62 321.421844
13.64 333.608643
13.66 336.500336
13.68 336.555756
13.70 349.642761
13.72 342.074341
13.74 354.509766
13.76 377.983948
13.78 378.122467
13.80 380.830322
13.82 404.54071
13.84 408.222198
13.86 414.210205
13.88 423.093201
13.90 432.718872
13.92 444.121155
13.94 454.355896
13.96 472.816498
13.98 485.125366
14.00 510.264069
14.02 528.397095
14.04 535.673523
14.06 553.091797
14.08 596.361694
14.10 607.673706
14.12 640.916565
14.14 683.473083
14.16 744.446228
14.18 764.217163
14.20 753.943909
14.22 820.829956
14.24 894.225708
14.26 931.577759
14.28 965.724854
14.30 969.386719
14.32 989.551636
14.34 1004.142334
14.36 1018.972534
14.38 1028.656738
14.40 1001.253906
14.42 922.810669
14.44 898.586731
14.46 880.134521
14.48 845.210266
14.50 807.36969
14.52 761.776489
14.54 722.282104
14.56 659.71344
14.58 652.894226
14.60 644.463562
14.62 612.390137
14.64 609.989197
14.66 577.264893
14.68 561.724731
14.70 578.954529
14.72 581.504639
14.74 603.101807
14.76 589.643066
14.78 598.758728
14.80 605.804382
14.82 622.388916
14.84 643.924622
14.86 676.070862
14.88 692.888306
14.90 713.301147
14.92 742.919983
14.94 766.195435
14.96 796.194885
14.98 845.107727
15.00 890.40741
15.02 889.288391
15.04 933.447571
15.06 1003.579407
15.08 1064.478516
15.10 1117.752075
15.12 1143.26001
15.14 1161.463501
15.16 1190.894653
15.18 1207.080322
15.20 1239.239868
15.22 1240.362427
15.24 1236.481323
15.26 1257.961304
15.28 1240.505615
15.30 1211.141479
15.32 1141.065186
15.34 1080.545654
15.36 1038.278564
15.38 1024.050293
15.40 977.434631
15.42 850.627869
15.44 775.512634
15.46 751.869568
15.48 696.480713
15.50 624.6427
15.52 579.062439
15.54 570.914795
15.56 539.571533
15.58 511.823669
15.60 488.276062
15.62 453.6716
15.64 423.313568
15.66 432.659668
15.68 421.375275
15.70 407.815765
15.72 411.923248
15.74 398.683563
15.76 403.981781
15.78 388.16333
15.80 376.182434
15.82 393.835022
15.84 372.808777
15.86 357.275421
15.88 370.510803
15.90 380.907166
15.92 376.595001
15.94 382.210266
15.96 381.23468
15.98 373.799896
16.00 375.094147
16.02 361.229706
16.04 342.997498
16.06 344.331573
16.08 358.737671
16.10 361.117859
16.12 337.650391
16.14 344.969604
16.16 362.822693
16.18 342.117188
16.20 371.903778
16.22 366.119629
16.24 346.318176
16.26 357.045319
16.28 362.759949
16.30 358.537567
16.32 367.217468
16.34 362.017456
16.36 345.706055
16.38 346.962616
16.40 342.571289
16.42 343.966766
16.44 362.069275
16.46 361.087982
16.48 347.27829
16.50 332.353821
16.52 339.294525
16.54 337.833069
16.56 345.463623
16.58 360.989075
16.60 355.437195
16.62 335.329559
16.64 361.08136
16.66 385.626648
16.68 359.545197
16.70 340.944824
16.72 344.721252
16.74 368.289459
16.76 362.615723
16.78 351.712921
16.80 350.420258
16.82 340.498047
16.84 340.863068
16.86 354.98526
16.88 336.829895
16.90 349.905121
16.92 352.92807
16.94 358.487762
16.96 361.113617
16.98 367.11554
17.00 372.83728
17.02 371.735077
17.04 378.118683
17.06 373.531555
17.08 369.049896
17.10 376.970459
17.12 393.092682
17.14 384.929504
17.16 373.626587
17.18 365.636047
17.20 366.438843
17.22 364.403168
17.24 339.287811
17.26 362.036621
17.28 373.835785
17.30 365.843933
17.32 381.173096
17.34 377.60788
17.36 380.393311
17.38 376.43689
17.40 384.783783
17.42 389.850006
17.44 386.912354
17.46 384.881744
17.48 378.675812
17.50 387.977081
17.52 388.087891
17.54 369.654327
17.56 360.564148
17.58 358.865021
17.60 366.036072
17.62 371.640381
17.64 374.950531
17.66 385.417145
17.68 387.667786
17.70 393.726013
17.72 397.07547
17.74 400.701904
17.76 406.696899
17.78 389.181763
17.80 400.220062
17.82 410.641541
17.84 381.638245
17.86 394.300079
17.88 404.465607
17.90 399.313721
17.92 406.011902
17.94 389.506592
17.96 371.603943
17.98 374.092163
18.00 398.15802
18.02 415.617188
18.04 381.620514
18.06 387.556183
18.08 403.999756
18.10 405.499725
18.12 400.199677
18.14 397.50415
18.16 396.964172
18.18 388.673218
18.20 387.553314
18.22 397.751404
18.24 406.362579
18.26 399.842163
18.28 403.022491
18.30 405.848145
18.32 384.549622
18.34 388.498688
18.36 410.574402
18.38 405.279602
18.40 412.898041
18.42 428.333008
18.44 423.815369
18.46 431.895996
18.48 452.404083
18.50 442.619904
18.52 420.487854
18.54 418.179504
18.56 408.757874
18.58 410.875458
18.60 413.825439
18.62 422.763367
18.64 415.763489
18.66 411.84256
18.68 440.302582
18.70 434.181122
18.72 409.544281
18.74 402.197144
18.76 420.417572
18.78 432.564362
18.80 424.354248
18.82 421.567627
18.84 425.726257
18.86 424.214661
18.88 451.113617
18.90 422.774445
18.92 429.32785
18.94 427.871704
18.96 445.64035
18.98 460.940704
19.00 449.918518
19.02 439.169281
19.04 421.370026
19.06 413.246765
19.08 434.00116
19.10 429.724701
19.12 444.075989
19.14 458.087372
19.16 446.021301
19.18 433.350189
19.20 435.932495
19.22 437.410126
19.24 432.436493
19.26 428.611725
19.28 461.409851
19.30 470.456848
19.32 483.478577
19.34 476.258667
19.36 473.928711
19.38 459.922211
19.40 462.253845
19.42 470.550232
19.44 473.508514
19.46 462.183807
19.48 459.979706
19.50 479.695038
19.52 484.481842
19.54 481.059875
19.56 475.838562
19.58 485.474884
19.60 475.008118
19.62 474.139374
19.64 480.281311
19.66 487.415894
19.68 467.181366
19.70 443.322632
19.72 456.138763
19.74 461.503143
19.76 465.801941
19.78 474.165527
19.80 486.040253
19.82 500.54361
19.84 506.02417
19.86 486.622864
19.88 476.38324
19.90 479.967041
19.92 494.783234
19.94 493.636261
19.96 507.77002
19.98 487.575684
20.00 479.549866
20.02 485.044983
20.04 496.269714
20.06 494.165222
20.08 472.623352
20.10 479.940613
20.12 487.110413
20.14 490.783234
20.16 485.598053
20.18 494.071228
20.20 497.877472
20.22 515.955688
20.24 514.632568
20.26 518.765503
20.28 531.918579
20.30 517.70459
20.32 514.0625
20.34 499.309753
20.36 473.254608
20.38 498.412811
20.40 519.350464
20.42 527.466858
20.44 529.554749
20.46 517.079346
20.48 500.604675
20.50 507.265594
20.52 536.14093
20.54 534.641235
20.56 521.355835
20.58 528.733215
20.60 545.090515
20.62 531.353516
20.64 514.477783
20.66 498.366425
20.68 502.056366
20.70 528.666199
20.72 537.577759
20.74 535.372009
20.76 519.280701
20.78 543.834778
20.80 531.314209
20.82 520.166443
20.84 518.897888
20.86 524.513916
20.88 552.391052
20.90 565.898865
20.92 538.502441
20.94 511.581085
20.96 513.581909
20.98 519.434265
21.00 532.78833
21.02 541.028381
21.04 529.814514
21.06 542.241516
21.08 537.085754
21.10 529.205627
21.12 523.71344
21.14 540.569702
21.16 569.147949
21.18 571.694336
21.20 551.558716
21.22 563.105286
21.24 565.523682
21.26 561.152222
21.28 577.014343
21.30 562.157715
21.32 543.245056
21.34 544.65387
21.36 563.34613
21.38 563.262085
21.40 557.691284
21.42 545.357727
21.44 568.469055
21.46 585.039551
21.48 579.793335
21.50 556.048218
21.52 560.262756
21.54 566.878357
21.56 572.104004
21.58 552.526428
21.60 580.133057
21.62 577.044983
21.64 572.91626
21.66 555.705444
21.68 553.625183
21.70 576.457642
21.72 565.185913
21.74 590.876709
21.76 574.045715
21.78 570.936279
21.80 574.02887
21.82 561.2229
21.84 554.392029
21.86 570.485291
21.88 564.193848
21.90 583.640198
21.92 601.463074
21.94 607.177856
21.96 587.857666
21.98 615.429138
22.00 610.40509
22.02 610.22345
22.04 594.247375
22.06 582.122009
22.08 584.053223
22.10 580.900085
22.12 589.966003
22.14 595.499146
22.16 600.080383
22.18 612.423584
22.20 611.729492
22.22 611.478333
22.24 612.132019
22.26 594.69696
22.28 607.015137
22.30 625.881714
22.32 618.321716
22.34 615.574524
22.36 610.993164
22.38 612.525513
22.40 611.247925
22.42 598.004089
22.44 611.775085
22.46 606.32489
22.48 610.209351
22.50 629.953979
22.52 602.559387
22.54 606.316895
22.56 602.879578
22.58 634.852417
22.60 632.57019
22.62 597.471619
22.64 592.785095
22.66 597.578735
22.68 597.361389
22.70 614.660095
22.72 629.686035
22.74 601.963196
22.76 600.329895
22.78 597.000793
22.80 599.626587
22.82 619.972168
22.84 615.046021
22.86 621.212341
22.88 620.169678
22.90 634.038757
22.92 635.954834
22.94 619.950012
22.96 626.396362
22.98 651.927673
23.00 679.2146
23.02 645.87677
23.04 631.298096
23.06 627.220947
23.08 616.810486
23.10 603.540527
23.12 597.601501
23.14 606.799255
23.16 619.588684
23.18 646.434631
23.20 640.119751
23.22 640.195801
23.24 632.419312
23.26 620.199585
23.28 607.52771
23.30 621.638672
23.32 626.18634
23.34 633.476563
23.36 624.35907
23.38 632.764099
23.40 644.294006
23.42 647.496887
23.44 644.605713
23.46 643.266602
23.48 648.611877
23.50 639.545837
23.52 618.709534
23.54 627.145813
23.56 629.702332
23.58 622.570557
23.60 627.27356
23.62 630.365906
23.64 635.197021
23.66 656.948242
23.68 656.935303
23.70 661.758118
23.72 668.268311
23.74 657.154175
23.76 651.944458
23.78 631.415405
23.80 637.583069
23.82 640.622986
23.84 664.183411
23.86 651.622314
23.88 624.941833
23.90 636.033508
23.92 633.583435
23.94 624.857422
23.96 631.312012
23.98 649.945313
24.00 639.077209
24.02 639.364197
24.04 648.930725
24.06 656.198242
24.08 653.100098
24.10 649.624695
24.12 658.035583
24.14 654.147034
24.16 631.879517
24.18 619.611938
24.20 619.175598
24.22 637.242432
24.24 636.767822
24.26 647.864746
24.28 671.241333
24.30 684.9375
24.32 687.711792
24.34 658.702209
24.36 640.019348
24.38 650.017883
24.40 667.54126
24.42 660.303772
24.44 653.736877
24.46 640.796204
24.48 640.247314
24.50 678.452698
24.52 659.525146
24.54 635.244934
24.56 653.525879
24.58 675.450012
24.60 653.129272
24.62 659.597717
24.64 668.320435
24.66 648.163391
24.68 657.227905
24.70 647.380615
24.72 651.466614
24.74 648.569397
24.76 639.920959
24.78 652.949463
24.80 652.894836
24.82 655.984314
24.84 652.450134
24.86 657.720154
24.88 680.425049
24.90 678.428589
24.92 675.490967
24.94 661.504395
24.96 655.002991
24.98 645.664978
25.00 659.948975
25.02 674.374817
25.04 668.163696
25.06 670.492798
25.08 672.357544
25.10 690.298523
25.12 680.818787
25.14 669.618347
25.16 671.21405
25.18 659.614563
25.20 679.159302
25.22 681.563293
25.24 700.566345
25.26 706.099976
25.28 692.450806
25.30 695.233887
25.32 690.254883
25.34 687.919556
25.36 673.718567
25.38 678.252686
25.40 669.068298
25.42 666.733704
25.44 669.90509
25.46 673.718506
25.48 681.191284
25.50 687.516541
25.52 673.37262
25.54 673.925598
25.56 678.699219
25.58 692.276123
25.60 678.404358
25.62 672.302917
25.64 668.810364
25.66 684.119324
25.68 670.088867
25.70 679.520874
25.72 689.64447
25.74 670.208557
25.76 650.497864
25.78 646.339294
25.80 669.895691
25.82 671.755066
25.84 662.587402
25.86 657.156616
25.88 646.273804
25.90 645.823303
25.92 668.626709
25.94 667.194702
25.96 665.523132
25.98 666.260986
26.00 655.957092
26.02 677.514893
26.04 670.217102
26.06 659.734924
26.08 674.395386
26.10 682.572998
26.12 666.378296
26.14 669.081055
26.16 657.722412
26.18 654.194885
26.20 652.656128
26.22 666.657959
26.24 664.411377
26.26 657.542969
26.28 649.759644
26.30 665.769775
26.32 669.176453
26.34 661.253784
26.36 646.327576
26.38 642.585266
26.40 646.714294
26.42 640.546387
26.44 669.182983
26.46 658.577576
26.48 666.80658
26.50 668.203674
26.52 649.46521
26.54 661.53064
26.56 673.584839
26.58 659.559509
26.60 667.036926
26.62 660.914856
26.64 665.212646
26.66 674.153809
26.68 657.570374
26.70 636.799377
26.72 636.799255
26.74 623.02771
26.76 629.309265
26.78 628.267273
26.80 640.778442
26.82 636.336243
26.84 640.088867
26.86 640.430054
26.88 635.844543
26.90 615.9552
26.92 636.056824
26.94 637.052795
26.96 633.091858
26.98 633.403992
27.00 634.392883
27.02 643.618835
27.04 642.811707
27.06 626.247559
27.08 608.15741
27.10 620.014526
27.12 640.297791
27.14 646.289673
27.16 641.196838
27.18 624.860229
27.20 614.89978
27.22 626.75238
27.24 630.965454
27.26 644.026855
27.28 645.891357
27.30 638.385071
27.32 646.866882
27.34 645.60022
27.36 653.137146
27.38 653.383057
27.40 634.552429
27.42 646.086609
27.44 653.123291
27.46 658.817627
27.48 633.831299
27.50 646.653137
27.52 634.337463
27.54 608.159485
27.56 635.353821
27.58 642.192444
27.60 636.594727
27.62 641.594971
27.64 637.564148
27.66 671.251099
27.68 679.159119
27.70 648.458679
27.72 631.406433
27.74 618.21936
27.76 625.241638
27.78 630.298096
27.80 664.749084
27.82 662.170959
27.84 665.221802
27.86 640.191162
27.88 631.38562
27.90 642.297668
27.92 636.969849
27.94 636.204468
27.96 629.323792
27.98 653.184387
28.00 664.111511
28.02 642.407471
28.04 660.037354
28.06 666.149353
28.08 657.210266
28.10 650.453735
28.12 657.88501
28.14 632.612
28.16 639.494995
28.18 639.119812
28.20 641.579102
28.22 650.254517
28.24 643.485474
28.26 635.322998
28.28 648.205505
28.30 651.403259
28.32 646.126221
28.34 658.365356
28.36 650.539124
28.38 650.525085
28.40 665.362366
28.42 670.386719
28.44 663.93335
28.46 666.474365
28.48 680.81366
28.50 666.588074
28.52 656.73822
28.54 665.227112
28.56 683.328735
28.58 699.690491
28.60 697.509766
28.62 696.532776
28.64 711.421082
28.66 721.256653
28.68 744.266479
28.70 755.049255
28.72 773.552185
28.74 792.503174
28.76 818.463684
28.78 838.88092
28.80 857.958923
28.82 897.518311
28.84 902.415649
28.86 920.184021
28.88 915.602234
28.90 938.459961
28.92 963.208252
28.94 953.709717
28.96 943.839233
28.98 906.231384
29.00 881.27356
29.02 870.217102
29.04 864.511292
29.06 821.030334
29.08 815.774292
29.10 793.997986
29.12 756.253967
29.14 739.871521
29.16 742.512939
29.18 745.886475
29.20 750.943298
29.22 738.000244
29.24 718.614746
29.26 719.928284
29.28 704.558899
29.30 694.215515
29.32 679.10199
29.34 692.531616
29.36 682.997925
29.38 653.854919
29.40 667.571716
29.42 673.071228
29.44 664.531799
29.46 664.873108
29.48 655.104248
29.50 656.450928
29.52 657.095703
29.54 649.134521
29.56 649.059082
29.58 661.736328
29.60 653.581482
29.62 655.894104
29.64 671.66449
29.66 657.237122
29.68 659.534241
29.70 649.597778
29.72 638.810486
29.74 652.714722
29.76 661.072632
29.78 670.364014
29.80 636.250854
29.82 648.750122
29.84 645.731201
29.86 657.99884
29.88 630.899963
29.90 625.648621
29.92 608.55072
29.94 624.403564
29.96 646.94696
29.98 642.676147
30.00 656.183228
30.02 646.221313
30.04 631.996094
30.06 636.624146
30.08 642.190674
30.10 632.635986
30.12 629.238037
30.14 654.176636
30.16 662.299622
30.18 638.167358
30.20 628.727112
30.22 644.070862
30.24 659.279114
30.26 646.300598
30.28 652.337952
30.30 656.739197
30.32 647.224548
30.34 654.722412
30.36 661.802307
30.38 674.286011
30.40 671.60437
30.42 659.306396
30.44 663.346924
30.46 663.68988
30.48 670.583496
30.50 680.122986
30.52 695.705017
30.54 723.713501
30.56 731.247864
30.58 747.26062
30.60 771.758118
30.62 781.455139
30.64 794.842041
30.66 802.978271
30.68 812.402832
30.70 824.690796
30.72 838.114563
30.74 844.251221
30.76 846.834473
30.78 854.649841
30.80 866.336243
30.82 871.339539
30.84 861.12616
30.86 848.985046
30.88 837.224426
30.90 824.82251
30.92 823.23761
30.94 809.330444
30.96 778.712891
30.98 750.555359
31.00 731.601013
31.02 714.799683
31.04 705.550903
31.06 694.658142
31.08 671.483459
31.10 639.239929
31.12 641.496582
31.14 649.11499
31.16 629.361145
31.18 632.415161
31.20 639.469604
31.22 625.211731
31.24 638.218872
31.26 614.59967
31.28 601.637695
31.30 612.290222
31.32 608.290649
31.34 608.669922
31.36 626.056519
31.38 615.701599
31.40 610.046997
31.42 616.035583
31.44 598.521423
31.46 588.217102
31.48 594.679321
31.50 589.69165
31.52 576.957825
31.54 564.367249
31.56 573.197754
31.58 577.024475
31.60 579.041077
31.62 584.536743
31.64 583.503235
31.66 573.274536
31.68 582.168762
31.70 593.945068
31.72 589.622864
31.74 574.749023
31.76 565.594727
31.78 569.006409
31.80 561.478027
31.82 567.427185
31.84 567.34552
31.86 569.316162
31.88 560.082764
31.90 559.213501
31.92 557.459656
31.94 584.108826
31.96 585.055115
31.98 585.05896
32.00 579.215149
32.02 567.943787
32.04 577.270752
32.06 574.133789
32.08 577.251282
32.10 580.09613
32.12 580.140076
32.14 571.190125
32.16 569.935181
32.18 562.509338
32.20 576.174133
32.22 585.296692
32.24 577.860596
32.26 566.618774
32.28 564.078857
32.30 571.833618
32.32 584.607971
32.34 585.497864
32.36 577.646912
32.38 579.071411
32.40 581.38562
32.42 571.077881
32.44 573.230896
32.46 569.434814
32.48 594.433533
32.50 572.59491
32.52 549.553223
32.54 550.197632
32.56 550.902283
32.58 559.053406
32.60 564.815247
32.62 560.663086
32.64 549.006409
32.66 551.105408
32.68 539.026917
32.70 550.554688
32.72 559.804199
32.74 572.096436
32.76 545.787903
32.78 531.980469
32.80 524.901917
32.82 526.788757
32.84 540.777466
32.86 523.400146
32.88 526.837402
32.90 535.599792
32.92 551.964294
32.94 531.976135
32.96 520.91449
32.98 533.938538
33.00 531.87677
33.02 535.41394
33.04 547.1922
33.06 539.270264
33.08 536.315125
33.10 531.447693
33.12 538.659607
33.14 520.655151
33.16 519.584534
33.18 524.055237
33.20 510.374908
33.22 519.909912
33.24 519.294739
33.26 510.388123
33.28 503.157745
33.30 507.147583
33.32 533.873718
33.34 528.590332
33.36 515.795654
33.38 522.914368
33.40 511.999603
33.42 504.062012
33.44 498.470612
33.46 509.999634
33.48 510.714355
33.50 512.681885
33.52 511.632324
33.54 509.922974
33.56 504.395081
33.58 493.108093
33.60 488.171051
33.62 488.842712
33.64 500.840912
33.66 505.278839
33.68 496.338257
33.70 497.089386
33.72 498.329773
33.74 491.050385
33.76 502.853424
33.78 505.586487
33.80 493.878937
33.82 491.097656
33.84 493.922607
33.86 499.643829
33.88 507.783142
33.90 512.604553
33.92 507.405579
33.94 504.269562
33.96 512.503967
33.98 507.014038
34.00 495.423157
34.02 491.660828
34.04 497.648102
34.06 501.177948
34.08 503.474304
34.10 489.278839
34.12 494.074554
34.14 480.603943
34.16 499.64621
34.18 502.688965
34.20 494.127716
34.22 488.167877
34.24 491.423126
34.26 487.506714
34.28 487.605133
34.30 483.756989
34.32 466.253113
34.34 459.830536
34.36 484.817627
34.38 497.591858
34.40 487.03067
34.42 474.125824
34.44 466.260315
34.46 479.613403
34.48 497.090363
34.50 493.829132
34.52 508.397369
34.54 489.01416
34.56 476.989655
34.58 478.243225
34.60 496.129791
34.62 492.509064
34.64 487.858948
34.66 468.916138
34.68 464.680267
34.70 476.991364
34.72 479.031494
34.74 470.344177
34.76 461.543701
34.78 479.814148
34.80 472.793274
34.82 464.261505
34.84 453.46701
34.86 447.46048
34.88 456.131134
34.90 467.887238
34.92 464.745483
34.94 462.827637
34.96 463.935913
34.98 469.421906
35.00 465.43219
35.02 454.797943
35.04 458.498444
35.06 467.640717
35.08 470.157501
35.10 456.524261
35.12 444.887695
35.14 432.465698
35.16 452.616974
35.18 469.485535
35.20 456.998108
35.22 453.808533
35.24 445.677399
35.26 456.859283
35.28 464.055176
35.30 447.240356
35.32 443.598938
35.34 455.339447
35.36 449.616119
35.38 457.812378
35.40 458.759827
35.42 450.852478
35.44 436.956848
35.46 431.572693
35.48 431.375824
35.50 430.937317
35.52 457.553864
35.54 433.950287
35.56 438.865723
35.58 439.884399
35.60 442.741241
35.62 432.093658
35.64 433.73642
35.66 441.214935
35.68 443.338837
35.70 456.836609
35.72 448.409302
35.74 428.058655
35.76 424.937164
35.78 429.12854
35.80 427.649353
35.82 420.38858
35.84 413.345032
35.86 427.210754
35.88 431.311279
35.90 411.891724
35.92 426.339691
35.94 429.622833
35.96 425.692871
35.98 427.986908
36.00 423.223755
36.02 420.665833
36.04 417.796448
36.06 410.171783
36.08 422.08078
36.10 418.212341
36.12 405.111725
36.14 402.620056
36.16 402.981293
36.18 422.888916
36.20 419.398987
36.22 417.887543
36.24 408.802307
36.26 413.557312
36.28 409.026794
36.30 398.503693
36.32 413.040955
36.34 431.427307
36.36 430.09494
36.38 418.490936
36.40 417.390015
36.42 414.570709
36.44 404.04834
36.46 406.431519
36.48 414.67218
36.50 401.623016
36.52 407.328186
36.54 405.048889
36.56 404.760376
36.58 412.579254
36.60 387.071991
36.62 397.629028
36.64 407.13382
36.66 396.739319
36.68 417.464203
36.70 410.078613
36.72 388.520508
36.74 379.270874
36.76 397.264832
36.78 398.907898
36.80 383.061096
36.82 376.589081
36.84 385.523438
36.86 384.460876
36.88 370.616608
36.90 392.661652
36.92 386.897064
36.94 381.495758
36.96 366.685791
36.98 374.550232
37.00 364.822144
37.02 375.690277
37.04 383.364532
37.06 383.03537
37.08 381.399139
37.10 386.084167
37.12 388.372864
37.14 397.763397
37.16 394.432983
37.18 374.864502
37.20 375.328796
37.22 386.687531
37.24 389.307861
37.26 369.338867
37.28 378.529541
37.30 385.442963
37.32 376.814087
37.34 368.160767
37.36 374.65802
37.38 368.154419
37.40 381.805023
37.42 386.680664
37.44 379.829956
37.46 377.075195
37.48 380.677612
37.50 373.039398
37.52 369.445709
37.54 387.117828
37.56 381.85199
37.58 380.404694
37.60 386.064758
37.62 372.91153
37.64 370.634735
37.66 369.252716
37.68 368.751465
37.70 372.983887
37.72 372.982178
37.74 369.915192
37.76 372.146423
37.78 367.887085
37.80 379.26416
37.82 379.539215
37.84 372.23349
37.86 370.500122
37.88 370.134186
37.90 360.13269
37.92 364.81189
37.94 375.531586
37.96 357.739838
37.98 355.099091
38.00 365.50769
38.02 359.790344
38.04 362.666687
38.06 365.427704
38.08 368.009674
38.10 366.817535
38.12 359.816223
38.14 364.37265
38.16 376.184845
38.18 376.425446
38.20 378.379608
38.22 386.928528
38.24 386.77356
38.26 380.58847
38.28 375.955505
38.30 380.48114
38.32 389.279205
38.34 395.563568
38.36 387.139526
38.38 394.592773
38.40 402.647797
38.42 416.806366
38.44 411.563293
38.46 414.325043
38.48 418.188782
38.50 409.150726
38.52 425.350342
38.54 421.256592
38.56 430.316284
38.58 428.443756
38.60 438.321259
38.62 428.179352
38.64 419.633484
38.66 422.976898
38.68 416.538025
38.70 410.88797
38.72 398.452911
38.74 385.504211
38.76 375.061859
38.78 387.03775
38.80 392.57785
38.82 380.846588
38.84 391.561218
38.86 380.70816
38.88 373.577393
38.90 365.352722
38.92 374.544312
38.94 379.734772
38.96 367.630463
38.98 368.641144
39.00 380.042236
39.02 363.17514
39.04 360.133209
39.06 365.415314
39.08 361.43219
39.10 373.314117
39.12 371.360291
39.14 363.700165
39.16 367.825836
39.18 372.767609
39.20 367.800964
39.22 355.602173
39.24 360.614014
39.26 365.063934
39.28 370.600555
39.30 355.90094
39.32 349.277924
39.34 349.515869
39.36 369.802704
39.38 378.742859
39.40 370.792023
39.42 375.403351
39.44 363.797668
39.46 364.242645
39.48 362.964813
39.50 364.276794
39.52 359.591949
39.54 362.82486
39.56 355.072113
39.58 376.707397
39.60 372.432617
39.62 365.34021
39.64 355.879974
39.66 360.357239
39.68 360.114838
39.70 355.773438
39.72 343.220306
39.74 354.569336
39.76 364.35022
39.78 362.939148
39.80 349.763367
39.82 345.685913
39.84 346.457397
39.86 338.524445
39.88 339.834656
39.90 357.867767
39.92 349.696075
39.94 343.069214
39.96 329.296753
39.98 343.097778
40.00 340.104553
